* ============= O3 Absorption Cross Sections at 243K =================================
* 
* Version 2.0
* Date: August 2000
* 
* K. Bogumil, J. Orphal, and J. P. Burrows
* University of Bremen - Institute of Environmental Physics
* P. O. Box 33 04 40
* D-28334 Bremen, Germany
* e-mail: Konstanze.Bogumil@iup.physik.uni-bremen.de
* 
* 1. column title:	wavelength (air) in nm
* 2. column title:	absorption cross-section 
* 
* Wavelength range:	230 - 1070 nm
* Spectral Resolution:	0.32 nm below 311.7 nm, 0.21 nm between 311.7 nm and 402 nm, 0.52 nm
*                         between 402 nm and 597.8 nm, 0.47 nm between 597.8 nm and 781.6 nm,
*                         0.62 nm between 781.6 nm and 1052.5 nm, 1.45 nm above 1052.5 nm (FWHM)
* Number of data points in file:	4227
* 
* Experimental:
* 
* Light source:   Xenon lamp, QTH lamp for 489.5 - 718.9 nm wavelength region
* Cell:	        Multiple reflection quartz cell (White optics)
* 	        optical pathlength 505 cm and 985 cm
* Temperature:    243K
* Gas mixture:    O3, O2, N2
* Condition:      Flow measurement
* Total pressure: 50 - 900 mbar
* Spectrometer:   SCIAMACHY PFM Satellite Spectrometer (Eight channel grating spectrometer)
* 
* Note: Spectral Regions are cutted and concatenated at 287.7 nm, 302.2 nm, 311.7 nm, 316.3 nm, 
*       334.2 nm, 345.2 nm, 402 nm, 489.5 nm, 597.8 nm, 718.9 nm, 781.6 nm and 1052.5 nm.
*
* ===============================================================================================
  2.2992531e+002  4.5022200e-018
  2.3006028e+002  4.4601000e-018
  2.3019525e+002  4.5758700e-018
  2.3033001e+002  4.6561300e-018
  2.3046478e+002  4.6877100e-018
  2.3059945e+002  4.7300300e-018
  2.3073402e+002  4.7926400e-018
  2.3086849e+002  4.7600000e-018
  2.3100295e+002  4.9023700e-018
  2.3113722e+002  4.8587800e-018
  2.3127149e+002  5.0073700e-018
  2.3140566e+002  4.9643800e-018
  2.3153983e+002  4.9880400e-018
  2.3167380e+002  5.0609000e-018
  2.3180776e+002  5.1584400e-018
  2.3194163e+002  5.1543400e-018
  2.3207540e+002  5.2271800e-018
  2.3220917e+002  5.2938900e-018
  2.3234274e+002  5.3616400e-018
  2.3247631e+002  5.3209300e-018
  2.3260977e+002  5.3994600e-018
  2.3274314e+002  5.5210900e-018
  2.3287651e+002  5.5028300e-018
  2.3300968e+002  5.5809900e-018
  2.3314285e+002  5.6735900e-018
  2.3327592e+002  5.6624000e-018
  2.3340888e+002  5.7403000e-018
  2.3354175e+002  5.7623100e-018
  2.3367462e+002  5.8143800e-018
  2.3380739e+002  5.8504600e-018
  2.3394006e+002  5.9080400e-018
  2.3407263e+002  5.9723900e-018
  2.3420520e+002  6.0108400e-018
  2.3433756e+002  6.0580800e-018
  2.3446993e+002  6.1550100e-018
  2.3460220e+002  6.1983500e-018
  2.3473437e+002  6.2701700e-018
  2.3486654e+002  6.3485900e-018
  2.3499851e+002  6.3465100e-018
  2.3513048e+002  6.3869600e-018
  2.3526234e+002  6.3849600e-018
  2.3539411e+002  6.4130200e-018
  2.3552588e+002  6.4639200e-018
  2.3565755e+002  6.5277500e-018
  2.3578902e+002  6.5971400e-018
  2.3592049e+002  6.6640000e-018
  2.3605196e+002  6.7401600e-018
  2.3618323e+002  6.8002500e-018
  2.3631449e+002  6.8322700e-018
  2.3644566e+002  6.8617100e-018
  2.3657673e+002  6.9133400e-018
  2.3670770e+002  6.9727700e-018
  2.3683867e+002  7.0150100e-018
  2.3696954e+002  7.0673900e-018
  2.3710021e+002  7.1126600e-018
  2.3723098e+002  7.1646100e-018
  2.3736154e+002  7.2011300e-018
  2.3749211e+002  7.2596300e-018
  2.3762248e+002  7.3088100e-018
  2.3775285e+002  7.3602400e-018
  2.3788322e+002  7.4194100e-018
  2.3801339e+002  7.4671900e-018
  2.3814356e+002  7.5306700e-018
  2.3827353e+002  7.5813500e-018
  2.3840360e+002  7.6402600e-018
  2.3853347e+002  7.6741800e-018
  2.3866323e+002  7.7174600e-018
  2.3879300e+002  7.7365200e-018
  2.3892267e+002  7.7834200e-018
  2.3905224e+002  7.8194700e-018
  2.3918171e+002  7.8902300e-018
  2.3931118e+002  7.9548000e-018
  2.3944055e+002  8.0310500e-018
  2.3956982e+002  8.0973300e-018
  2.3969899e+002  8.1856200e-018
  2.3982806e+002  8.2394200e-018
  2.3995712e+002  8.2890200e-018
  2.4008609e+002  8.3136100e-018
  2.4021496e+002  8.3216100e-018
  2.4034373e+002  8.3443500e-018
  2.4047250e+002  8.3715400e-018
  2.4060117e+002  8.4121900e-018
  2.4072974e+002  8.4637900e-018
  2.4085821e+002  8.5269500e-018
  2.4098668e+002  8.5682900e-018
  2.4111495e+002  8.6344300e-018
  2.4124322e+002  8.6912800e-018
  2.4137139e+002  8.7554500e-018
  2.4149956e+002  8.8219900e-018
  2.4162753e+002  8.8772300e-018
  2.4175549e+002  8.9099100e-018
  2.4188336e+002  8.9170200e-018
  2.4201123e+002  8.9572900e-018
  2.4213890e+002  8.9908400e-018
  2.4226657e+002  9.0224100e-018
  2.4239414e+002  9.0705200e-018
  2.4252161e+002  9.0853100e-018
  2.4264908e+002  9.1383300e-018
  2.4277635e+002  9.1868400e-018
  2.4290362e+002  9.2393900e-018
  2.4303089e+002  9.3040500e-018
  2.4315796e+002  9.3684000e-018
  2.4328503e+002  9.4154300e-018
  2.4341200e+002  9.4717400e-018
  2.4353887e+002  9.5301300e-018
  2.4366564e+002  9.5900500e-018
  2.4379241e+002  9.6306200e-018
  2.4391908e+002  9.6671700e-018
  2.4404564e+002  9.6859200e-018
  2.4417221e+002  9.6925300e-018
  2.4429858e+002  9.6921000e-018
  2.4442495e+002  9.7025900e-018
  2.4455122e+002  9.7118900e-018
  2.4467749e+002  9.7187100e-018
  2.4480366e+002  9.7545900e-018
  2.4492973e+002  9.8198300e-018
  2.4505570e+002  9.9025800e-018
  2.4518157e+002  1.0008600e-017
  2.4530744e+002  1.0104200e-017
  2.4543321e+002  1.0167100e-017
  2.4555888e+002  1.0210400e-017
  2.4568455e+002  1.0246300e-017
  2.4581012e+002  1.0261900e-017
  2.4593559e+002  1.0279200e-017
  2.4606096e+002  1.0284700e-017
  2.4618633e+002  1.0280100e-017
  2.4631150e+002  1.0276600e-017
  2.4643667e+002  1.0275000e-017
  2.4656184e+002  1.0287800e-017
  2.4668691e+002  1.0296400e-017
  2.4681188e+002  1.0329300e-017
  2.4693675e+002  1.0380100e-017
  2.4706152e+002  1.0446400e-017
  2.4718629e+002  1.0506000e-017
  2.4731096e+002  1.0562700e-017
  2.4743553e+002  1.0603000e-017
  2.4756010e+002  1.0641800e-017
  2.4768457e+002  1.0672100e-017
  2.4780894e+002  1.0681100e-017
  2.4793331e+002  1.0674900e-017
  2.4805748e+002  1.0645200e-017
  2.4818165e+002  1.0644700e-017
  2.4830582e+002  1.0662200e-017
  2.4842979e+002  1.0710400e-017
  2.4855376e+002  1.0790600e-017
  2.4867763e+002  1.0880700e-017
  2.4880150e+002  1.0966000e-017
  2.4892527e+002  1.1016900e-017
  2.4904894e+002  1.1044400e-017
  2.4917251e+002  1.1040400e-017
  2.4929608e+002  1.1023100e-017
  2.4941955e+002  1.1021500e-017
  2.4954292e+002  1.1047300e-017
  2.4966629e+002  1.1084600e-017
  2.4978956e+002  1.1121700e-017
  2.4991273e+002  1.1148000e-017
  2.5003590e+002  1.1149400e-017
  2.5015897e+002  1.1132900e-017
  2.5028194e+002  1.1093500e-017
  2.5040481e+002  1.1062000e-017
  2.5052768e+002  1.1042100e-017
  2.5065045e+002  1.1032400e-017
  2.5077322e+002  1.1038800e-017
  2.5089579e+002  1.1052300e-017
  2.5101836e+002  1.1080800e-017
  2.5114093e+002  1.1117000e-017
  2.5126330e+002  1.1180000e-017
  2.5138577e+002  1.1279200e-017
  2.5150804e+002  1.1383300e-017
  2.5163031e+002  1.1467400e-017
  2.5175249e+002  1.1510000e-017
  2.5187456e+002  1.1502000e-017
  2.5199663e+002  1.1475600e-017
  2.5211860e+002  1.1431400e-017
  2.5224047e+002  1.1389500e-017
  2.5236234e+002  1.1344600e-017
  2.5248411e+002  1.1303300e-017
  2.5260578e+002  1.1281500e-017
  2.5272745e+002  1.1279300e-017
  2.5284902e+002  1.1296300e-017
  2.5297059e+002  1.1322900e-017
  2.5309196e+002  1.1344200e-017
  2.5321343e+002  1.1371300e-017
  2.5333470e+002  1.1402900e-017
  2.5345597e+002  1.1448400e-017
  2.5357714e+002  1.1481500e-017
  2.5369831e+002  1.1499300e-017
  2.5381938e+002  1.1513100e-017
  2.5394035e+002  1.1519400e-017
  2.5406123e+002  1.1496600e-017
  2.5418210e+002  1.1465100e-017
  2.5430297e+002  1.1407900e-017
  2.5442374e+002  1.1348600e-017
  2.5454441e+002  1.1319700e-017
  2.5466498e+002  1.1326500e-017
  2.5478555e+002  1.1373100e-017
  2.5490602e+002  1.1449700e-017
  2.5502649e+002  1.1537400e-017
  2.5514686e+002  1.1618600e-017
  2.5526713e+002  1.1675400e-017
  2.5538740e+002  1.1689400e-017
  2.5550757e+002  1.1660200e-017
  2.5562774e+002  1.1611700e-017
  2.5574772e+002  1.1559500e-017
  2.5586779e+002  1.1515200e-017
  2.5598766e+002  1.1458800e-017
  2.5610753e+002  1.1410800e-017
  2.5622740e+002  1.1352900e-017
  2.5634717e+002  1.1290100e-017
  2.5646684e+002  1.1236000e-017
  2.5658651e+002  1.1199300e-017
  2.5670608e+002  1.1204000e-017
  2.5682555e+002  1.1229200e-017
  2.5694502e+002  1.1267600e-017
  2.5706439e+002  1.1300000e-017
  2.5718377e+002  1.1302700e-017
  2.5730304e+002  1.1276700e-017
  2.5742231e+002  1.1234700e-017
  2.5754138e+002  1.1200600e-017
  2.5766055e+002  1.1173800e-017
  2.5777962e+002  1.1163400e-017
  2.5789859e+002  1.1150600e-017
  2.5801746e+002  1.1158000e-017
  2.5813633e+002  1.1191400e-017
  2.5825520e+002  1.1268100e-017
  2.5837398e+002  1.1359600e-017
  2.5849265e+002  1.1447600e-017
  2.5861132e+002  1.1501800e-017
  2.5872989e+002  1.1503800e-017
  2.5884836e+002  1.1467600e-017
  2.5896683e+002  1.1397400e-017
  2.5908530e+002  1.1287000e-017
  2.5920367e+002  1.1154700e-017
  2.5932194e+002  1.1010000e-017
  2.5944022e+002  1.0875700e-017
  2.5955839e+002  1.0774600e-017
  2.5967656e+002  1.0707300e-017
  2.5979463e+002  1.0677000e-017
  2.5991260e+002  1.0681200e-017
  2.6003067e+002  1.0727200e-017
  2.6014854e+002  1.0811100e-017
  2.6026641e+002  1.0902400e-017
  2.6038418e+002  1.0988800e-017
  2.6050196e+002  1.1045400e-017
  2.6061973e+002  1.1068100e-017
  2.6073730e+002  1.1037700e-017
  2.6085497e+002  1.0971700e-017
  2.6097244e+002  1.0873500e-017
  2.6109001e+002  1.0760900e-017
  2.6120738e+002  1.0651700e-017
  2.6132476e+002  1.0557500e-017
  2.6144213e+002  1.0490500e-017
  2.6155940e+002  1.0454400e-017
  2.6167667e+002  1.0444600e-017
  2.6179384e+002  1.0443000e-017
  2.6191091e+002  1.0458100e-017
  2.6202798e+002  1.0481100e-017
  2.6214505e+002  1.0518100e-017
  2.6226203e+002  1.0555200e-017
  2.6237900e+002  1.0579400e-017
  2.6249587e+002  1.0559100e-017
  2.6261264e+002  1.0495700e-017
  2.6272941e+002  1.0392100e-017
  2.6284618e+002  1.0272100e-017
  2.6296285e+002  1.0151400e-017
  2.6307943e+002  1.0044800e-017
  2.6319600e+002  9.9688800e-018
  2.6331257e+002  9.9044800e-018
  2.6342904e+002  9.8648700e-018
  2.6354541e+002  9.8525700e-018
  2.6366178e+002  9.8595300e-018
  2.6377815e+002  9.8870300e-018
  2.6389443e+002  9.9202600e-018
  2.6401070e+002  9.9529900e-018
  2.6412687e+002  9.9844600e-018
  2.6424304e+002  9.9989000e-018
  2.6435911e+002  1.0004400e-017
  2.6447518e+002  9.9832700e-018
  2.6459116e+002  9.9265300e-018
  2.6470713e+002  9.8299100e-018
  2.6482300e+002  9.7129000e-018
  2.6493887e+002  9.5992700e-018
  2.6505464e+002  9.5235700e-018
  2.6517041e+002  9.5019600e-018
  2.6528618e+002  9.5145000e-018
  2.6540186e+002  9.5389700e-018
  2.6551743e+002  9.5416300e-018
  2.6563310e+002  9.5294400e-018
  2.6574857e+002  9.5044200e-018
  2.6586414e+002  9.4556800e-018
  2.6597951e+002  9.3856100e-018
  2.6609499e+002  9.3077800e-018
  2.6621036e+002  9.2424600e-018
  2.6632563e+002  9.1925600e-018
  2.6644090e+002  9.1476900e-018
  2.6655617e+002  9.0870200e-018
  2.6667134e+002  9.0062900e-018
  2.6678652e+002  8.8991300e-018
  2.6690159e+002  8.7941100e-018
  2.6701666e+002  8.7219700e-018
  2.6713173e+002  8.6963100e-018
  2.6724670e+002  8.7255500e-018
  2.6736158e+002  8.7818000e-018
  2.6747645e+002  8.8314100e-018
  2.6759132e+002  8.8438300e-018
  2.6770619e+002  8.8141900e-018
  2.6782096e+002  8.7567800e-018
  2.6793563e+002  8.6848400e-018
  2.6805031e+002  8.6005400e-018
  2.6816498e+002  8.5070100e-018
  2.6827965e+002  8.4206800e-018
  2.6839422e+002  8.3267600e-018
  2.6850869e+002  8.2490900e-018
  2.6862316e+002  8.1901000e-018
  2.6873764e+002  8.1384700e-018
  2.6885201e+002  8.0809400e-018
  2.6896638e+002  8.0162800e-018
  2.6908075e+002  7.9682400e-018
  2.6919502e+002  7.9494900e-018
  2.6930930e+002  7.9685000e-018
  2.6942357e+002  8.0132500e-018
  2.6953774e+002  8.0657200e-018
  2.6965181e+002  8.0889200e-018
  2.6976598e+002  8.0629200e-018
  2.6988006e+002  7.9954500e-018
  2.6999403e+002  7.9130000e-018
  2.7010800e+002  7.8247900e-018
  2.7022197e+002  7.7416700e-018
  2.7033594e+002  7.6580500e-018
  2.7044982e+002  7.5811400e-018
  2.7056359e+002  7.5087100e-018
  2.7067746e+002  7.4437900e-018
  2.7079123e+002  7.3970200e-018
  2.7090490e+002  7.3583600e-018
  2.7101867e+002  7.3201900e-018
  2.7113235e+002  7.2823400e-018
  2.7124592e+002  7.2396700e-018
  2.7135959e+002  7.2052600e-018
  2.7147316e+002  7.1803600e-018
  2.7158663e+002  7.1664900e-018
  2.7170011e+002  7.1556200e-018
  2.7181358e+002  7.1397600e-018
  2.7192705e+002  7.1034400e-018
  2.7204042e+002  7.0406300e-018
  2.7215379e+002  6.9639500e-018
  2.7226707e+002  6.8949600e-018
  2.7238044e+002  6.8413100e-018
  2.7249371e+002  6.8001700e-018
  2.7260688e+002  6.7505600e-018
  2.7272006e+002  6.6944200e-018
  2.7283323e+002  6.6420400e-018
  2.7294640e+002  6.6040200e-018
  2.7305947e+002  6.5808200e-018
  2.7317254e+002  6.5480300e-018
  2.7328562e+002  6.4939700e-018
  2.7339859e+002  6.4226700e-018
  2.7351156e+002  6.3532100e-018
  2.7362453e+002  6.2831200e-018
  2.7373740e+002  6.2123900e-018
  2.7385038e+002  6.1442100e-018
  2.7396315e+002  6.0716900e-018
  2.7407602e+002  5.9960500e-018
  2.7418879e+002  5.9226900e-018
  2.7430156e+002  5.8765500e-018
  2.7441434e+002  5.8597900e-018
  2.7452701e+002  5.8676200e-018
  2.7463968e+002  5.8797600e-018
  2.7475235e+002  5.8708600e-018
  2.7486493e+002  5.8490500e-018
  2.7497760e+002  5.8051600e-018
  2.7509007e+002  5.7535900e-018
  2.7520264e+002  5.6942100e-018
  2.7531511e+002  5.6349300e-018
  2.7542769e+002  5.5749800e-018
  2.7554006e+002  5.5087900e-018
  2.7565253e+002  5.4473000e-018
  2.7576490e+002  5.3951500e-018
  2.7587727e+002  5.3552600e-018
  2.7598965e+002  5.3368200e-018
  2.7610192e+002  5.3217700e-018
  2.7621429e+002  5.2934300e-018
  2.7632656e+002  5.2436200e-018
  2.7643874e+002  5.1838400e-018
  2.7655101e+002  5.1291200e-018
  2.7666318e+002  5.0859800e-018
  2.7677535e+002  5.0517500e-018
  2.7688742e+002  5.0159200e-018
  2.7699960e+002  4.9822600e-018
  2.7711167e+002  4.9584800e-018
  2.7722374e+002  4.9386300e-018
  2.7733581e+002  4.9142800e-018
  2.7744779e+002  4.8705900e-018
  2.7755976e+002  4.8146000e-018
  2.7767173e+002  4.7494500e-018
  2.7778370e+002  4.6812700e-018
  2.7789567e+002  4.6292000e-018
  2.7800755e+002  4.5797100e-018
  2.7811942e+002  4.5429000e-018
  2.7823129e+002  4.5061200e-018
  2.7834306e+002  4.4734500e-018
  2.7845494e+002  4.4394100e-018
  2.7856671e+002  4.4061300e-018
  2.7867848e+002  4.3662900e-018
  2.7879015e+002  4.3210100e-018
  2.7890193e+002  4.2699600e-018
  2.7901360e+002  4.2194600e-018
  2.7912527e+002  4.1734600e-018
  2.7923694e+002  4.1370600e-018
  2.7934861e+002  4.1148100e-018
  2.7946019e+002  4.0952200e-018
  2.7957176e+002  4.0767600e-018
  2.7968333e+002  4.0593400e-018
  2.7979490e+002  4.0300400e-018
  2.7990648e+002  3.9952600e-018
  2.8001795e+002  3.9388900e-018
  2.8012942e+002  3.8739400e-018
  2.8024089e+002  3.8072600e-018
  2.8035237e+002  3.7570400e-018
  2.8046384e+002  3.7160200e-018
  2.8057521e+002  3.6779400e-018
  2.8068658e+002  3.6526900e-018
  2.8079805e+002  3.6351200e-018
  2.8090933e+002  3.6198100e-018
  2.8102070e+002  3.5911500e-018
  2.8113207e+002  3.5484700e-018
  2.8124334e+002  3.4924500e-018
  2.8135462e+002  3.4250200e-018
  2.8146589e+002  3.3581600e-018
  2.8157716e+002  3.3043600e-018
  2.8168833e+002  3.2583100e-018
  2.8179961e+002  3.2215000e-018
  2.8191078e+002  3.1953000e-018
  2.8202195e+002  3.1768100e-018
  2.8213312e+002  3.1610600e-018
  2.8224430e+002  3.1406600e-018
  2.8235547e+002  3.1162200e-018
  2.8246654e+002  3.0748500e-018
  2.8257761e+002  3.0331000e-018
  2.8268869e+002  2.9940900e-018
  2.8279976e+002  2.9670800e-018
  2.8291083e+002  2.9524000e-018
  2.8302190e+002  2.9415400e-018
  2.8313287e+002  2.9395500e-018
  2.8324395e+002  2.9432200e-018
  2.8335492e+002  2.9335400e-018
  2.8346589e+002  2.8994700e-018
  2.8357686e+002  2.8522800e-018
  2.8368784e+002  2.7912000e-018
  2.8379871e+002  2.7319900e-018
  2.8390968e+002  2.6783200e-018
  2.8402055e+002  2.6301200e-018
  2.8413143e+002  2.5958800e-018
  2.8424240e+002  2.5744200e-018
  2.8435317e+002  2.5533100e-018
  2.8446404e+002  2.5296300e-018
  2.8457492e+002  2.5028100e-018
  2.8468569e+002  2.4772300e-018
  2.8479656e+002  2.4550000e-018
  2.8490733e+002  2.4227600e-018
  2.8501811e+002  2.3914900e-018
  2.8512888e+002  2.3516300e-018
  2.8523965e+002  2.3073400e-018
  2.8535042e+002  2.2729800e-018
  2.8546119e+002  2.2525100e-018
  2.8557187e+002  2.2331100e-018
  2.8568264e+002  2.2262800e-018
  2.8579331e+002  2.2139200e-018
  2.8590398e+002  2.1930000e-018
  2.8601466e+002  2.1698800e-018
  2.8612533e+002  2.1482600e-018
  2.8623600e+002  2.1225900e-018
  2.8634667e+002  2.0951000e-018
  2.8645725e+002  2.0682300e-018
  2.8656792e+002  2.0402600e-018
  2.8667849e+002  2.0166000e-018
  2.8678916e+002  1.9942000e-018
  2.8689974e+002  1.9766000e-018
  2.8701031e+002  1.9618700e-018
  2.8712088e+002  1.9459600e-018
  2.8723145e+002  1.9274000e-018
  2.8734203e+002  1.9029500e-018
  2.8745260e+002  1.8676600e-018
  2.8756307e+002  1.8293800e-018
  2.8767364e+002  1.7940700e-018
  2.8778412e+002  1.7619100e-018
  2.8789469e+002  1.7330600e-018
  2.8800516e+002  1.7122700e-018
  2.8811563e+002  1.6855600e-018
  2.8822611e+002  1.6676600e-018
  2.8833658e+002  1.6476100e-018
  2.8844705e+002  1.6297300e-018
  2.8855752e+002  1.6176000e-018
  2.8866799e+002  1.6011600e-018
  2.8877837e+002  1.5816700e-018
  2.8888884e+002  1.5622900e-018
  2.8899921e+002  1.5394800e-018
  2.8910968e+002  1.5228400e-018
  2.8922006e+002  1.5009800e-018
  2.8933043e+002  1.4829000e-018
  2.8944090e+002  1.4623300e-018
  2.8955127e+002  1.4381100e-018
  2.8966165e+002  1.4185300e-018
  2.8977202e+002  1.4017900e-018
  2.8988239e+002  1.3884500e-018
  2.8999276e+002  1.3747400e-018
  2.9010304e+002  1.3620600e-018
  2.9021341e+002  1.3446900e-018
  2.9032378e+002  1.3287800e-018
  2.9043405e+002  1.3144700e-018
  2.9054443e+002  1.3020400e-018
  2.9065470e+002  1.2882700e-018
  2.9076507e+002  1.2723100e-018
  2.9087534e+002  1.2518900e-018
  2.9098562e+002  1.2388600e-018
  2.9109589e+002  1.2204300e-018
  2.9120626e+002  1.2043600e-018
  2.9131653e+002  1.1763800e-018
  2.9142681e+002  1.1544900e-018
  2.9153708e+002  1.1308800e-018
  2.9164735e+002  1.1085800e-018
  2.9175752e+002  1.0916300e-018
  2.9186780e+002  1.0779200e-018
  2.9197807e+002  1.0640600e-018
  2.9208834e+002  1.0493900e-018
  2.9219851e+002  1.0368800e-018
  2.9230878e+002  1.0271400e-018
  2.9241906e+002  1.0208600e-018
  2.9252923e+002  1.0141700e-018
  2.9263950e+002  1.0063600e-018
  2.9274967e+002  9.9448500e-019
  2.9285985e+002  9.7969800e-019
  2.9297012e+002  9.6255600e-019
  2.9308029e+002  9.4671800e-019
  2.9319046e+002  9.3008500e-019
  2.9330064e+002  9.1358400e-019
  2.9341091e+002  8.9613400e-019
  2.9352108e+002  8.7985900e-019
  2.9363125e+002  8.6344500e-019
  2.9374143e+002  8.5051100e-019
  2.9385160e+002  8.3949100e-019
  2.9396177e+002  8.3269000e-019
  2.9407194e+002  8.2677000e-019
  2.9418212e+002  8.1954100e-019
  2.9429219e+002  8.0932500e-019
  2.9440236e+002  8.0055900e-019
  2.9451253e+002  7.9075300e-019
  2.9462271e+002  7.8076000e-019
  2.9473278e+002  7.7038500e-019
  2.9484295e+002  7.5890900e-019
  2.9495312e+002  7.4755100e-019
  2.9506319e+002  7.3459600e-019
  2.9517337e+002  7.1975500e-019
  2.9528354e+002  7.0419300e-019
  2.9539361e+002  6.8981400e-019
  2.9550378e+002  6.7813300e-019
  2.9561386e+002  6.6959500e-019
  2.9572393e+002  6.6286600e-019
  2.9583410e+002  6.5474500e-019
  2.9594417e+002  6.4545600e-019
  2.9605435e+002  6.3263700e-019
  2.9616442e+002  6.1831500e-019
  2.9627449e+002  6.0750400e-019
  2.9638456e+002  6.0114800e-019
  2.9649474e+002  5.9716300e-019
  2.9660481e+002  5.9394800e-019
  2.9671488e+002  5.8990000e-019
  2.9682495e+002  5.8324900e-019
  2.9693503e+002  5.7147900e-019
  2.9704510e+002  5.5938200e-019
  2.9715527e+002  5.4857900e-019
  2.9726534e+002  5.3950400e-019
  2.9737541e+002  5.3113400e-019
  2.9748549e+002  5.2153000e-019
  2.9759556e+002  5.1232200e-019
  2.9770563e+002  5.0337800e-019
  2.9781570e+002  4.9516100e-019
  2.9792568e+002  4.8752200e-019
  2.9803575e+002  4.8094600e-019
  2.9814582e+002  4.7516700e-019
  2.9825589e+002  4.6919600e-019
  2.9836597e+002  4.6312800e-019
  2.9847604e+002  4.5737900e-019
  2.9858611e+002  4.5295500e-019
  2.9869608e+002  4.4895700e-019
  2.9880616e+002  4.4498400e-019
  2.9891623e+002  4.3892300e-019
  2.9902630e+002  4.3035300e-019
  2.9913627e+002  4.2097200e-019
  2.9924634e+002  4.1178400e-019
  2.9935642e+002  4.0382800e-019
  2.9946639e+002  3.9549500e-019
  2.9957646e+002  3.8750100e-019
  2.9968643e+002  3.8152900e-019
  2.9979651e+002  3.7752200e-019
  2.9990648e+002  3.7452600e-019
  3.0001655e+002  3.7083900e-019
  3.0012652e+002  3.6603700e-019
  3.0023660e+002  3.6076100e-019
  3.0034657e+002  3.5628600e-019
  3.0045664e+002  3.5218900e-019
  3.0056661e+002  3.4812700e-019
  3.0067669e+002  3.4277600e-019
  3.0078666e+002  3.3619200e-019
  3.0089663e+002  3.2885000e-019
  3.0100670e+002  3.2155200e-019
  3.0111667e+002  3.1467300e-019
  3.0122665e+002  3.0883400e-019
  3.0133662e+002  3.0389600e-019
  3.0144669e+002  2.9962900e-019
  3.0155666e+002  2.9580700e-019
  3.0166664e+002  2.9352400e-019
  3.0177661e+002  2.9184600e-019
  3.0188658e+002  2.8952800e-019
  3.0199655e+002  2.8663900e-019
  3.0210653e+002  2.8315800e-019
  3.0221650e+002  2.7938800e-019
  3.0232647e+002  2.7479400e-019
  3.0243644e+002  2.6967000e-019
  3.0254641e+002  2.6423100e-019
  3.0265639e+002  2.5889600e-019
  3.0276636e+002  2.5322300e-019
  3.0287633e+002  2.4766300e-019
  3.0298630e+002  2.4241200e-019
  3.0309628e+002  2.3799300e-019
  3.0320625e+002  2.3472900e-019
  3.0331612e+002  2.3180100e-019
  3.0342609e+002  2.2930300e-019
  3.0353607e+002  2.2669400e-019
  3.0364594e+002  2.2479500e-019
  3.0375591e+002  2.2349800e-019
  3.0386588e+002  2.2310600e-019
  3.0397575e+002  2.2198600e-019
  3.0408573e+002  2.1907500e-019
  3.0419560e+002  2.1521600e-019
  3.0430557e+002  2.1160700e-019
  3.0441544e+002  2.0801100e-019
  3.0452542e+002  2.0424500e-019
  3.0463529e+002  1.9928100e-019
  3.0474516e+002  1.9422100e-019
  3.0485513e+002  1.8958300e-019
  3.0496501e+002  1.8538500e-019
  3.0507488e+002  1.8114600e-019
  3.0518475e+002  1.7747000e-019
  3.0529462e+002  1.7426900e-019
  3.0540449e+002  1.7153700e-019
  3.0551437e+002  1.7039300e-019
  3.0562424e+002  1.6982600e-019
  3.0573411e+002  1.6889100e-019
  3.0584398e+002  1.6722700e-019
  3.0595386e+002  1.6555500e-019
  3.0606373e+002  1.6461700e-019
  3.0617350e+002  1.6418600e-019
  3.0628337e+002  1.6331400e-019
  3.0639324e+002  1.6060800e-019
  3.0650302e+002  1.5710500e-019
  3.0661289e+002  1.5376600e-019
  3.0672266e+002  1.5125600e-019
  3.0683253e+002  1.4843700e-019
  3.0694231e+002  1.4446200e-019
  3.0705208e+002  1.4011200e-019
  3.0716185e+002  1.3608700e-019
  3.0727172e+002  1.3294000e-019
  3.0738150e+002  1.3012600e-019
  3.0749127e+002  1.2797300e-019
  3.0760104e+002  1.2624900e-019
  3.0771081e+002  1.2541500e-019
  3.0782048e+002  1.2556800e-019
  3.0793026e+002  1.2539700e-019
  3.0804003e+002  1.2510700e-019
  3.0814980e+002  1.2440100e-019
  3.0825947e+002  1.2222800e-019
  3.0836925e+002  1.1949000e-019
  3.0847892e+002  1.1775100e-019
  3.0858859e+002  1.1801200e-019
  3.0869836e+002  1.1787200e-019
  3.0880804e+002  1.1686300e-019
  3.0891771e+002  1.1524200e-019
  3.0902738e+002  1.1380800e-019
  3.0913705e+002  1.1126000e-019
  3.0924672e+002  1.0842900e-019
  3.0935630e+002  1.0470500e-019
  3.0946597e+002  1.0014300e-019
  3.0957564e+002  9.6654600e-020
  3.0968521e+002  9.4865600e-020
  3.0979489e+002  9.3885300e-020
  3.0990446e+002  9.2534100e-020
  3.1001403e+002  9.2425700e-020
  3.1012360e+002  9.2701300e-020
  3.1023317e+002  9.2857900e-020
  3.1034275e+002  9.2297400e-020
  3.1045232e+002  8.9756700e-020
  3.1056189e+002  8.7399400e-020
  3.1067136e+002  8.6550000e-020
  3.1078094e+002  8.5359000e-020
  3.1089041e+002  8.4049700e-020
  3.1099988e+002  8.3769100e-020
  3.1110935e+002  8.3089300e-020
  3.1121883e+002  8.3143000e-020
  3.1132830e+002  8.3442100e-020
  3.1143777e+002  8.3303700e-020
  3.1154724e+002  8.1582300e-020
  3.1162452e+002  7.5251500e-020
  3.1173929e+002  7.2708800e-020
  3.1185396e+002  7.0247900e-020
  3.1196874e+002  6.8396300e-020
  3.1208341e+002  6.6832000e-020
  3.1219808e+002  6.5619800e-020
  3.1231275e+002  6.4140500e-020
  3.1242742e+002  6.2701700e-020
  3.1254199e+002  6.1220200e-020
  3.1265656e+002  6.0173300e-020
  3.1277123e+002  5.9199100e-020
  3.1288570e+002  5.8819600e-020
  3.1300027e+002  5.8129700e-020
  3.1311475e+002  5.7784800e-020
  3.1322932e+002  5.8287500e-020
  3.1334379e+002  5.9719500e-020
  3.1345826e+002  6.0630400e-020
  3.1357263e+002  6.0344200e-020
  3.1368710e+002  5.8906300e-020
  3.1380147e+002  5.7096200e-020
  3.1391584e+002  5.5103500e-020
  3.1403011e+002  5.3084600e-020
  3.1414448e+002  5.0854200e-020
  3.1425876e+002  4.8722300e-020
  3.1437303e+002  4.6505200e-020
  3.1448730e+002  4.4808200e-020
  3.1460157e+002  4.3721200e-020
  3.1471574e+002  4.3575800e-020
  3.1483001e+002  4.3499500e-020
  3.1494418e+002  4.3181300e-020
  3.1505835e+002  4.2570600e-020
  3.1517242e+002  4.2645600e-020
  3.1528660e+002  4.3763200e-020
  3.1540067e+002  4.5876000e-020
  3.1551474e+002  4.7089800e-020
  3.1562881e+002  4.6520500e-020
  3.1574278e+002  4.4464600e-020
  3.1585675e+002  4.2169600e-020
  3.1597072e+002  3.9925500e-020
  3.1608469e+002  3.8419500e-020
  3.1619866e+002  3.7325000e-020
  3.1631254e+002  3.6369400e-020
  3.1642651e+002  3.5109300e-020
  3.1654038e+002  3.3806100e-020
  3.1665415e+002  3.2657100e-020
  3.1676802e+002  3.2404000e-020
  3.1688179e+002  3.3177800e-020
  3.1699556e+002  3.4328100e-020
  3.1710933e+002  3.4541000e-020
  3.1722310e+002  3.3956700e-020
  3.1733678e+002  3.3536800e-020
  3.1745055e+002  3.4528600e-020
  3.1756422e+002  3.5859800e-020
  3.1767779e+002  3.5754200e-020
  3.1779146e+002  3.3996800e-020
  3.1790503e+002  3.2282000e-020
  3.1801860e+002  3.1108600e-020
  3.1813217e+002  2.9898900e-020
  3.1824574e+002  2.8077600e-020
  3.1835922e+002  2.6260400e-020
  3.1847279e+002  2.4854700e-020
  3.1858626e+002  2.4020400e-020
  3.1869963e+002  2.3295400e-020
  3.1881310e+002  2.2519500e-020
  3.1892647e+002  2.1663800e-020
  3.1903984e+002  2.1193800e-020
  3.1915321e+002  2.1698800e-020
  3.1926659e+002  2.3612300e-020
  3.1937986e+002  2.5853200e-020
  3.1949313e+002  2.6820900e-020
  3.1960640e+002  2.6237900e-020
  3.1971967e+002  2.5596600e-020
  3.1983284e+002  2.6187100e-020
  3.1994611e+002  2.7493700e-020
  3.2005928e+002  2.7252000e-020
  3.2017246e+002  2.5459200e-020
  3.2028553e+002  2.3216800e-020
  3.2039860e+002  2.1495000e-020
  3.2051177e+002  2.0331100e-020
  3.2062474e+002  1.9198100e-020
  3.2073781e+002  1.7733300e-020
  3.2085088e+002  1.6324100e-020
  3.2096385e+002  1.5215500e-020
  3.2107683e+002  1.4642000e-020
  3.2118970e+002  1.4524100e-020
  3.2130267e+002  1.4680300e-020
  3.2141554e+002  1.4691500e-020
  3.2152841e+002  1.4491600e-020
  3.2164128e+002  1.4451000e-020
  3.2175415e+002  1.5470600e-020
  3.2186692e+002  1.7982800e-020
  3.2197970e+002  2.0552400e-020
  3.2209247e+002  2.1139900e-020
  3.2220524e+002  2.0120800e-020
  3.2231791e+002  1.8811400e-020
  3.2243058e+002  1.8613000e-020
  3.2254325e+002  1.9731400e-020
  3.2265592e+002  2.0367000e-020
  3.2276860e+002  1.9359800e-020
  3.2288117e+002  1.7592400e-020
  3.2299374e+002  1.5723600e-020
  3.2310631e+002  1.4038100e-020
  3.2321878e+002  1.2594900e-020
  3.2333135e+002  1.1422800e-020
  3.2344382e+002  1.0415000e-020
  3.2355629e+002  9.5714200e-021
  3.2366867e+002  8.8813400e-021
  3.2378114e+002  8.4604200e-021
  3.2389351e+002  8.4290300e-021
  3.2400588e+002  8.9482100e-021
  3.2411825e+002  9.6565900e-021
  3.2423052e+002  1.0041000e-020
  3.2434289e+002  1.0035900e-020
  3.2445517e+002  1.0086100e-020
  3.2456734e+002  1.0871400e-020
  3.2467961e+002  1.3087000e-020
  3.2479178e+002  1.5266900e-020
  3.2490405e+002  1.5611300e-020
  3.2501612e+002  1.4562700e-020
  3.2512829e+002  1.3235800e-020
  3.2524047e+002  1.2225900e-020
  3.2535254e+002  1.2120100e-020
  3.2546461e+002  1.2386600e-020
  3.2557658e+002  1.2018500e-020
  3.2568865e+002  1.1012800e-020
  3.2580062e+002  9.8952400e-021
  3.2591259e+002  8.8427700e-021
  3.2602457e+002  7.9683000e-021
  3.2613654e+002  7.2509900e-021
  3.2624841e+002  6.7019400e-021
  3.2636028e+002  6.2756800e-021
  3.2647215e+002  5.9077200e-021
  3.2658402e+002  5.5731400e-021
  3.2669580e+002  5.3407100e-021
  3.2680757e+002  5.3382300e-021
  3.2691934e+002  5.8446600e-021
  3.2703111e+002  6.7833600e-021
  3.2714288e+002  7.5061800e-021
  3.2725455e+002  7.5960300e-021
  3.2736622e+002  7.3188100e-021
  3.2747790e+002  7.0696800e-021
  3.2758957e+002  7.4847300e-021
  3.2770114e+002  8.9681600e-021
  3.2781271e+002  1.0719400e-020
  3.2792428e+002  1.1435000e-020
  3.2803585e+002  1.0990000e-020
  3.2814733e+002  9.9734300e-021
  3.2825880e+002  8.8974700e-021
  3.2837027e+002  7.8888800e-021
  3.2848174e+002  6.9948600e-021
  3.2859321e+002  6.1783600e-021
  3.2870458e+002  5.4598400e-021
  3.2881595e+002  4.8536700e-021
  3.2892733e+002  4.3769400e-021
  3.2903870e+002  3.9729800e-021
  3.2914997e+002  3.6453500e-021
  3.2926124e+002  3.3914300e-021
  3.2937251e+002  3.2629100e-021
  3.2948378e+002  3.2598100e-021
  3.2959506e+002  3.2845900e-021
  3.2970623e+002  3.2422900e-021
  3.2981740e+002  3.1814000e-021
  3.2992857e+002  3.2372800e-021
  3.3003974e+002  3.6813100e-021
  3.3015081e+002  4.7045100e-021
  3.3026189e+002  5.7395200e-021
  3.3037296e+002  6.0589700e-021
  3.3048403e+002  5.8365800e-021
  3.3059500e+002  5.4481400e-021
  3.3070607e+002  5.2097700e-021
  3.3081704e+002  5.4820100e-021
  3.3092792e+002  6.4210300e-021
  3.3103889e+002  7.0914600e-021
  3.3114976e+002  6.9480400e-021
  3.3126073e+002  6.3411200e-021
  3.3137160e+002  5.6493700e-021
  3.3148237e+002  4.9834400e-021
  3.3159325e+002  4.4193000e-021
  3.3170402e+002  3.9130600e-021
  3.3181479e+002  3.4566700e-021
  3.3192556e+002  3.0541700e-021
  3.3203633e+002  2.7267100e-021
  3.3214700e+002  2.4526300e-021
  3.3225768e+002  2.2436600e-021
  3.3236835e+002  2.0737300e-021
  3.3247902e+002  1.9589100e-021
  3.3258959e+002  1.9080000e-021
  3.3270026e+002  1.9724600e-021
  3.3281083e+002  2.1547000e-021
  3.3292141e+002  2.3423400e-021
  3.3303188e+002  2.4678600e-021
  3.3314245e+002  2.5268100e-021
  3.3325292e+002  2.5670500e-021
  3.3336339e+002  2.7884000e-021
  3.3347387e+002  3.5042100e-021
  3.3358424e+002  4.4639300e-021
  3.3369471e+002  4.9259600e-021
  3.3380508e+002  4.8410200e-021
  3.3391545e+002  4.4660800e-021
  3.3402582e+002  3.9911400e-021
  3.3413610e+002  3.5137900e-021
  3.3424637e+002  3.0880100e-021
  3.3435674e+002  2.7416200e-021
  3.3446691e+002  2.4229200e-021
  3.3457718e+002  2.2403900e-021
  3.3468736e+002  2.0410000e-021
  3.3479763e+002  1.8313600e-021
  3.3490780e+002  1.6309400e-021
  3.3501797e+002  1.4530400e-021
  3.3512804e+002  1.3023700e-021
  3.3523821e+002  1.1840700e-021
  3.3534829e+002  1.1169700e-021
  3.3545836e+002  1.0818500e-021
  3.3556833e+002  1.0658300e-021
  3.3567840e+002  1.0430600e-021
  3.3578837e+002  1.0073700e-021
  3.3589835e+002  9.8995800e-022
  3.3600832e+002  1.0360300e-021
  3.3611829e+002  1.1771600e-021
  3.3622826e+002  1.4284300e-021
  3.3633813e+002  1.7276700e-021
  3.3644800e+002  1.8974500e-021
  3.3655788e+002  1.8882400e-021
  3.3666775e+002  1.8134600e-021
  3.3677752e+002  1.7909500e-021
  3.3688729e+002  1.9006700e-021
  3.3699716e+002  2.2810500e-021
  3.3710684e+002  2.8766000e-021
  3.3721661e+002  3.1989200e-021
  3.3732638e+002  3.1009700e-021
  3.3743605e+002  2.8365500e-021
  3.3754572e+002  2.5359800e-021
  3.3765540e+002  2.2431900e-021
  3.3776497e+002  1.9669200e-021
  3.3787464e+002  1.7233500e-021
  3.3798421e+002  1.5065200e-021
  3.3809378e+002  1.3182600e-021
  3.3820336e+002  1.1541000e-021
  3.3831293e+002  1.0172700e-021
  3.3842240e+002  9.1141300e-022
  3.3853197e+002  8.3744800e-022
  3.3864144e+002  7.9014700e-022
  3.3875092e+002  7.5826300e-022
  3.3886029e+002  7.3102300e-022
  3.3896976e+002  7.0775100e-022
  3.3907913e+002  6.9487900e-022
  3.3918850e+002  7.2323700e-022
  3.3929788e+002  7.9262400e-022
  3.3940725e+002  8.4678900e-022
  3.3951652e+002  8.5536000e-022
  3.3962589e+002  8.4257600e-022
  3.3973516e+002  8.6026400e-022
  3.3984444e+002  9.8928600e-022
  3.3995361e+002  1.2888100e-021
  3.4006288e+002  1.5812500e-021
  3.4017205e+002  1.6588900e-021
  3.4028132e+002  1.5744100e-021
  3.4039050e+002  1.4271000e-021
  3.4049957e+002  1.2659100e-021
  3.4060874e+002  1.1107300e-021
  3.4071781e+002  9.7435400e-022
  3.4082698e+002  8.5437900e-022
  3.4093606e+002  7.4994900e-022
  3.4104513e+002  6.6141700e-022
  3.4115410e+002  5.8757000e-022
  3.4126317e+002  5.2665700e-022
  3.4137214e+002  4.7617300e-022
  3.4148112e+002  4.3494600e-022
  3.4159009e+002  4.0337600e-022
  3.4169906e+002  3.8184100e-022
  3.4180803e+002  3.7402300e-022
  3.4191690e+002  3.7838200e-022
  3.4202578e+002  3.8419500e-022
  3.4213465e+002  3.7626900e-022
  3.4224352e+002  3.5269700e-022
  3.4235239e+002  3.3171000e-022
  3.4246116e+002  3.1559500e-022
  3.4257004e+002  3.1351300e-022
  3.4267881e+002  3.3830500e-022
  3.4278758e+002  3.8307300e-022
  3.4289635e+002  4.2441800e-022
  3.4300502e+002  4.7412600e-022
  3.4311380e+002  5.2724000e-022
  3.4322247e+002  5.4635600e-022
  3.4333114e+002  5.3765400e-022
  3.4343981e+002  5.2973800e-022
  3.4354849e+002  5.4667500e-022
  3.4365706e+002  6.2550500e-022
  3.4376573e+002  8.3831200e-022
  3.4387430e+002  1.0988100e-021
  3.4398287e+002  1.2060000e-021
  3.4409145e+002  1.1649800e-021
  3.4420002e+002  1.0657000e-021
  3.4430849e+002  9.4941900e-022
  3.4441706e+002  8.3654800e-022
  3.4452553e+002  7.3949700e-022
  3.4463401e+002  6.5190000e-022
  3.4474248e+002  5.8024700e-022
  3.4485095e+002  5.1880900e-022
  3.4495932e+002  4.6482400e-022
  3.4506770e+002  4.1663600e-022
  3.4517617e+002  3.8371300e-022
  3.4528454e+002  3.6046600e-022
  3.4539291e+002  3.4676900e-022
  3.4550118e+002  3.4825000e-022
  3.4560956e+002  3.5425500e-022
  3.4571783e+002  3.4545900e-022
  3.4582620e+002  3.2242600e-022
  3.4593447e+002  2.9366200e-022
  3.4604274e+002  2.6758800e-022
  3.4615092e+002  2.4811700e-022
  3.4625919e+002  2.3818700e-022
  3.4636736e+002  2.3287100e-022
  3.4647563e+002  2.2537200e-022
  3.4658381e+002  2.1644200e-022
  3.4669198e+002  2.1017600e-022
  3.4680015e+002  2.1201500e-022
  3.4690822e+002  2.3464800e-022
  3.4701639e+002  2.9832100e-022
  3.4712447e+002  3.7844700e-022
  3.4723254e+002  4.0872000e-022
  3.4734061e+002  3.9394000e-022
  3.4744868e+002  3.6109500e-022
  3.4755676e+002  3.2446900e-022
  3.4766483e+002  2.8834300e-022
  3.4777280e+002  2.5508500e-022
  3.4788087e+002  2.2541600e-022
  3.4798884e+002  2.0040900e-022
  3.4809682e+002  1.7872400e-022
  3.4820479e+002  1.6067500e-022
  3.4831266e+002  1.4607000e-022
  3.4842063e+002  1.3818100e-022
  3.4852851e+002  1.3497100e-022
  3.4863648e+002  1.3280200e-022
  3.4874435e+002  1.2683200e-022
  3.4885222e+002  1.1852500e-022
  3.4896000e+002  1.1050700e-022
  3.4906787e+002  1.0492200e-022
  3.4917574e+002  1.0611600e-022
  3.4928351e+002  1.2077100e-022
  3.4939128e+002  1.4199300e-022
  3.4949916e+002  1.5114400e-022
  3.4960693e+002  1.4785000e-022
  3.4971460e+002  1.3909800e-022
  3.4982237e+002  1.2935600e-022
  3.4993015e+002  1.2231700e-022
  3.5003782e+002  1.2061700e-022
  3.5014559e+002  1.2233000e-022
  3.5025326e+002  1.2231700e-022
  3.5036093e+002  1.1919700e-022
  3.5046861e+002  1.1679300e-022
  3.5057618e+002  1.1467100e-022
  3.5068385e+002  1.1309400e-022
  3.5079152e+002  1.1325800e-022
  3.5089910e+002  1.1745700e-022
  3.5100667e+002  1.3432200e-022
  3.5111424e+002  1.7732300e-022
  3.5122181e+002  2.5599400e-022
  3.5132939e+002  3.2598800e-022
  3.5143696e+002  3.4725200e-022
  3.5154453e+002  3.3413500e-022
  3.5165200e+002  3.0807900e-022
  3.5175947e+002  2.7745500e-022
  3.5186705e+002  2.4722600e-022
  3.5197452e+002  2.1873600e-022
  3.5208199e+002  1.9446100e-022
  3.5218936e+002  1.7592300e-022
  3.5229684e+002  1.6453500e-022
  3.5240431e+002  1.6047000e-022
  3.5251168e+002  1.5831200e-022
  3.5261915e+002  1.5120500e-022
  3.5272653e+002  1.3935600e-022
  3.5283390e+002  1.2596600e-022
  3.5294127e+002  1.1330100e-022
  3.5304864e+002  1.0235000e-022
  3.5315602e+002  9.4794200e-023
  3.5326329e+002  8.9997500e-023
  3.5337066e+002  8.4731100e-023
  3.5347793e+002  7.8062300e-023
  3.5358530e+002  7.1052500e-023
  3.5369258e+002  6.4404000e-023
  3.5379985e+002  5.8375600e-023
  3.5390712e+002  5.3213400e-023
  3.5401439e+002  4.9213600e-023
  3.5412157e+002  4.6182100e-023
  3.5422884e+002  4.4473000e-023
  3.5433611e+002  4.3625000e-023
  3.5444328e+002  4.3985300e-023
  3.5455046e+002  4.5100300e-023
  3.5465773e+002  4.8597100e-023
  3.5476490e+002  5.4825700e-023
  3.5487207e+002  6.0930100e-023
  3.5497915e+002  6.4308400e-023
  3.5508632e+002  6.4032600e-023
  3.5519349e+002  6.1124400e-023
  3.5530056e+002  5.6987300e-023
  3.5540774e+002  5.2582900e-023
  3.5551481e+002  4.8178400e-023
  3.5562198e+002  4.4282600e-023
  3.5572905e+002  4.2274900e-023
  3.5583612e+002  4.1069900e-023
  3.5594320e+002  3.9457600e-023
  3.5605027e+002  3.7135900e-023
  3.5615724e+002  3.4848100e-023
  3.5626431e+002  3.3336600e-023
  3.5637129e+002  3.3257700e-023
  3.5647836e+002  3.7441100e-023
  3.5658533e+002  4.7219900e-023
  3.5669240e+002  5.5325500e-023
  3.5679938e+002  5.7112200e-023
  3.5690635e+002  5.4751300e-023
  3.5701332e+002  5.0729300e-023
  3.5712029e+002  4.6497100e-023
  3.5722717e+002  4.3906700e-023
  3.5733414e+002  4.3550700e-023
  3.5744111e+002  4.4134600e-023
  3.5754798e+002  4.2913900e-023
  3.5765496e+002  4.0294200e-023
  3.5776183e+002  3.7037100e-023
  3.5786870e+002  3.4346000e-023
  3.5797557e+002  3.1913600e-023
  3.5808255e+002  2.9617200e-023
  3.5818942e+002  2.8047500e-023
  3.5829619e+002  2.6107800e-023
  3.5840306e+002  2.4561300e-023
  3.5850994e+002  2.3415000e-023
  3.5861681e+002  2.2845400e-023
  3.5872358e+002  2.3016000e-023
  3.5883045e+002  2.4278200e-023
  3.5893723e+002  2.6335900e-023
  3.5904400e+002  3.0014200e-023
  3.5915087e+002  3.7429300e-023
  3.5925764e+002  4.9238400e-023
  3.5936441e+002  5.9983900e-023
  3.5947119e+002  6.4927300e-023
  3.5957796e+002  6.4455800e-023
  3.5968473e+002  6.1065700e-023
  3.5979150e+002  5.6804700e-023
  3.5989818e+002  5.2896800e-023
  3.6000495e+002  5.0689900e-023
  3.6011162e+002  5.0500800e-023
  3.6021839e+002  4.9064600e-023
  3.6032507e+002  4.5714600e-023
  3.6043184e+002  4.1876100e-023
  3.6053851e+002  3.7898500e-023
  3.6064518e+002  3.4266500e-023
  3.6075186e+002  3.1447700e-023
  3.6085853e+002  2.9457500e-023
  3.6096520e+002  2.7942100e-023
  3.6107187e+002  2.6099700e-023
  3.6117855e+002  2.3738000e-023
  3.6128522e+002  2.1872700e-023
  3.6139189e+002  1.9946300e-023
  3.6149846e+002  1.8087200e-023
  3.6160514e+002  1.6498900e-023
  3.6171171e+002  1.5043100e-023
  3.6181838e+002  1.3660400e-023
  3.6192495e+002  1.2523900e-023
  3.6203153e+002  1.1955300e-023
  3.6213820e+002  1.1400900e-023
  3.6224477e+002  1.0899700e-023
  3.6235134e+002  1.0575800e-023
  3.6245792e+002  1.0028900e-023
  3.6256449e+002  9.5341600e-024
  3.6267106e+002  9.0420400e-024
  3.6277763e+002  8.6249700e-024
  3.6288421e+002  8.5603200e-024
  3.6299078e+002  8.4794300e-024
  3.6309725e+002  8.6499800e-024
  3.6320382e+002  8.4750000e-024
  3.6331040e+002  8.5938000e-024
  3.6341687e+002  8.7031600e-024
  3.6352344e+002  8.8680700e-024
  3.6362991e+002  8.7655300e-024
  3.6373649e+002  8.9861900e-024
  3.6384296e+002  8.5070800e-024
  3.6394943e+002  8.1679000e-024
  3.6405590e+002  8.0629800e-024
  3.6416248e+002  8.1774200e-024
  3.6426895e+002  8.3608500e-024
  3.6437542e+002  9.0144900e-024
  3.6448189e+002  1.0936400e-023
  3.6458837e+002  1.4433500e-023
  3.6469484e+002  1.6799900e-023
  3.6480131e+002  1.7211700e-023
  3.6490778e+002  1.6852100e-023
  3.6501426e+002  1.5830000e-023
  3.6512063e+002  1.4688300e-023
  3.6522710e+002  1.4333600e-023
  3.6533357e+002  1.4203500e-023
  3.6543995e+002  1.4656700e-023
  3.6554642e+002  1.4926200e-023
  3.6565289e+002  1.4595000e-023
  3.6575926e+002  1.3680400e-023
  3.6586574e+002  1.2512400e-023
  3.6597211e+002  1.1504700e-023
  3.6607848e+002  1.0570900e-023
  3.6618495e+002  9.6828300e-024
  3.6629133e+002  9.2325700e-024
  3.6639770e+002  8.4943000e-024
  3.6650417e+002  7.8879000e-024
  3.6661054e+002  7.3627200e-024
  3.6671692e+002  6.7895800e-024
  3.6682329e+002  6.2572600e-024
  3.6692966e+002  5.8916800e-024
  3.6703603e+002  5.4691300e-024
  3.6714241e+002  5.2595300e-024
  3.6724878e+002  4.9189500e-024
  3.6735515e+002  4.8721600e-024
  3.6746152e+002  4.6356200e-024
  3.6756790e+002  4.4746600e-024
  3.6767427e+002  4.5449200e-024
  3.6778064e+002  4.6928400e-024
  3.6788701e+002  4.8790700e-024
  3.6799339e+002  5.4199000e-024
  3.6809966e+002  6.1124700e-024
  3.6820603e+002  7.0589200e-024
  3.6831240e+002  8.5199900e-024
  3.6841868e+002  9.2362900e-024
  3.6852505e+002  9.2456200e-024
  3.6863142e+002  9.5256200e-024
  3.6873769e+002  9.2428500e-024
  3.6884407e+002  9.0581500e-024
  3.6895034e+002  8.5787700e-024
  3.6905671e+002  7.9991500e-024
  3.6916298e+002  7.4294000e-024
  3.6926935e+002  7.0144800e-024
  3.6937563e+002  6.5700600e-024
  3.6948200e+002  6.3818100e-024
  3.6958827e+002  6.0713600e-024
  3.6969464e+002  5.5910700e-024
  3.6980092e+002  5.4438700e-024
  3.6990719e+002  5.2423100e-024
  3.7001356e+002  4.9361600e-024
  3.7011983e+002  4.9889800e-024
  3.7022611e+002  4.9697800e-024
  3.7033248e+002  4.7371200e-024
  3.7043875e+002  4.3970300e-024
  3.7054502e+002  4.3845700e-024
  3.7065140e+002  4.1987300e-024
  3.7075767e+002  3.9856300e-024
  3.7086394e+002  3.9849800e-024
  3.7097021e+002  3.9682900e-024
  3.7107649e+002  3.8776200e-024
  3.7118286e+002  3.5098200e-024
  3.7128913e+002  3.1674500e-024
  3.7139540e+002  3.0637200e-024
  3.7150168e+002  3.2762400e-024
  3.7160795e+002  2.9387500e-024
  3.7171422e+002  2.6260400e-024
  3.7182049e+002  2.6025500e-024
  3.7192677e+002  2.6035800e-024
  3.7203314e+002  2.7574200e-024
  3.7213941e+002  2.6248000e-024
  3.7224568e+002  2.6816800e-024
  3.7235196e+002  2.7500800e-024
  3.7245823e+002  2.8014300e-024
  3.7256450e+002  2.6134800e-024
  3.7267077e+002  2.5864000e-024
  3.7277705e+002  2.6504400e-024
  3.7288332e+002  2.6339600e-024
  3.7298959e+002  2.8857600e-024
  3.7309586e+002  3.1376500e-024
  3.7320214e+002  3.7564600e-024
  3.7330841e+002  4.2938700e-024
  3.7341468e+002  4.6890900e-024
  3.7352095e+002  5.0029000e-024
  3.7362723e+002  5.1784400e-024
  3.7373350e+002  4.9050900e-024
  3.7383977e+002  4.7922800e-024
  3.7394604e+002  4.7408000e-024
  3.7405232e+002  5.1743300e-024
  3.7415859e+002  5.1644200e-024
  3.7426486e+002  5.1991400e-024
  3.7437113e+002  5.1416300e-024
  3.7447741e+002  4.8321600e-024
  3.7458368e+002  4.7239400e-024
  3.7468995e+002  4.5030200e-024
  3.7479622e+002  4.4243500e-024
  3.7490250e+002  4.3649100e-024
  3.7500877e+002  4.1546200e-024
  3.7511504e+002  3.7738400e-024
  3.7522131e+002  3.8276400e-024
  3.7532759e+002  3.4916200e-024
  3.7543386e+002  3.6698700e-024
  3.7554013e+002  3.2952800e-024
  3.7564640e+002  3.5394900e-024
  3.7575268e+002  3.4163700e-024
  3.7585905e+002  3.1098200e-024
  3.7596532e+002  3.0299700e-024
  3.7607159e+002  3.0856900e-024
  3.7617786e+002  3.2327100e-024
  3.7628414e+002  3.1703200e-024
  3.7639041e+002  3.0740900e-024
  3.7649668e+002  3.0364600e-024
  3.7660295e+002  3.0030200e-024
  3.7670923e+002  2.8610700e-024
  3.7681550e+002  2.8859700e-024
  3.7692187e+002  2.6427600e-024
  3.7702814e+002  2.5743200e-024
  3.7713442e+002  2.7470400e-024
  3.7724069e+002  2.6273100e-024
  3.7734696e+002  2.6154400e-024
  3.7745323e+002  2.5692900e-024
  3.7755961e+002  2.5248400e-024
  3.7766588e+002  2.7992000e-024
  3.7777215e+002  2.7446700e-024
  3.7787842e+002  2.3957700e-024
  3.7798480e+002  2.7528800e-024
  3.7809107e+002  2.6851200e-024
  3.7819734e+002  2.5312200e-024
  3.7830371e+002  2.5638700e-024
  3.7840999e+002  2.6518000e-024
  3.7851626e+002  2.8721700e-024
  3.7862263e+002  3.3592200e-024
  3.7872890e+002  3.0708300e-024
  3.7883518e+002  3.0206200e-024
  3.7894155e+002  3.0545200e-024
  3.7904782e+002  2.8372800e-024
  3.7915419e+002  2.9219100e-024
  3.7926046e+002  3.0089400e-024
  3.7936684e+002  2.9896300e-024
  3.7947311e+002  3.2247200e-024
  3.7957938e+002  3.2954200e-024
  3.7968575e+002  3.2472300e-024
  3.7979213e+002  3.2273200e-024
  3.7989840e+002  3.4848800e-024
  3.8000477e+002  3.2308800e-024
  3.8011104e+002  3.2915000e-024
  3.8021742e+002  3.1391800e-024
  3.8032379e+002  3.0488900e-024
  3.8043006e+002  3.4438600e-024
  3.8053643e+002  3.3626100e-024
  3.8064281e+002  3.2456600e-024
  3.8074908e+002  3.4345400e-024
  3.8085545e+002  3.4804100e-024
  3.8096182e+002  3.3054200e-024
  3.8106820e+002  3.4591800e-024
  3.8117447e+002  3.6271600e-024
  3.8128084e+002  3.7515100e-024
  3.8138721e+002  3.8558100e-024
  3.8149359e+002  3.6979100e-024
  3.8159996e+002  3.5919800e-024
  3.8170633e+002  3.4562200e-024
  3.8181270e+002  3.7504000e-024
  3.8191907e+002  3.5293500e-024
  3.8202545e+002  3.7976100e-024
  3.8213182e+002  3.8548600e-024
  3.8223819e+002  4.0880400e-024
  3.8234456e+002  3.8736100e-024
  3.8245094e+002  3.9612800e-024
  3.8255731e+002  3.9588700e-024
  3.8266368e+002  3.7422500e-024
  3.8277005e+002  4.2086400e-024
  3.8287643e+002  4.3639400e-024
  3.8298290e+002  4.1320900e-024
  3.8308927e+002  3.9987700e-024
  3.8319564e+002  3.9062100e-024
  3.8330202e+002  4.1638500e-024
  3.8340849e+002  4.0434700e-024
  3.8351486e+002  4.1560500e-024
  3.8362123e+002  3.9615400e-024
  3.8372770e+002  3.7405200e-024
  3.8383408e+002  3.9776500e-024
  3.8394055e+002  4.0135400e-024
  3.8404692e+002  3.8489900e-024
  3.8415329e+002  4.0484300e-024
  3.8425977e+002  4.1768200e-024
  3.8436624e+002  3.9484700e-024
  3.8447261e+002  3.8156400e-024
  3.8457908e+002  3.6895600e-024
  3.8468546e+002  3.7349100e-024
  3.8479193e+002  3.6961100e-024
  3.8489840e+002  3.6533100e-024
  3.8500477e+002  3.5960500e-024
  3.8511124e+002  3.7571200e-024
  3.8521772e+002  3.7541500e-024
  3.8532409e+002  3.6150600e-024
  3.8543056e+002  3.5001700e-024
  3.8553703e+002  3.6850000e-024
  3.8564351e+002  3.5050600e-024
  3.8574998e+002  3.8589000e-024
  3.8585645e+002  4.0122400e-024
  3.8596292e+002  4.1210400e-024
  3.8606940e+002  4.1164400e-024
  3.8617587e+002  4.0091400e-024
  3.8628234e+002  4.3259500e-024
  3.8638881e+002  4.4011700e-024
  3.8649528e+002  4.3187100e-024
  3.8660176e+002  4.4121600e-024
  3.8670823e+002  4.5384000e-024
  3.8681470e+002  4.5056300e-024
  3.8692117e+002  4.5997600e-024
  3.8702765e+002  4.3947800e-024
  3.8713422e+002  4.4246400e-024
  3.8724069e+002  4.5656900e-024
  3.8734716e+002  4.9473500e-024
  3.8745374e+002  4.8825300e-024
  3.8756021e+002  4.6546600e-024
  3.8766668e+002  5.1718200e-024
  3.8777325e+002  5.2405200e-024
  3.8787972e+002  5.0490000e-024
  3.8798630e+002  5.2606700e-024
  3.8809277e+002  5.1972500e-024
  3.8819924e+002  5.2906300e-024
  3.8830581e+002  5.3904600e-024
  3.8841239e+002  5.6089700e-024
  3.8851886e+002  5.3078400e-024
  3.8862543e+002  5.3315500e-024
  3.8873190e+002  5.5447400e-024
  3.8883848e+002  5.4576900e-024
  3.8894505e+002  5.3715800e-024
  3.8905152e+002  5.6066600e-024
  3.8915809e+002  5.6501500e-024
  3.8926466e+002  5.5195400e-024
  3.8937124e+002  5.3730200e-024
  3.8947781e+002  5.5658400e-024
  3.8958428e+002  5.6090000e-024
  3.8969085e+002  5.8622700e-024
  3.8979743e+002  5.3985500e-024
  3.8990400e+002  5.9438100e-024
  3.9001057e+002  5.6756800e-024
  3.9011714e+002  5.7721500e-024
  3.9022371e+002  6.0062500e-024
  3.9033029e+002  6.0006100e-024
  3.9043686e+002  5.8587500e-024
  3.9054343e+002  5.8357300e-024
  3.9065000e+002  5.6533400e-024
  3.9075658e+002  5.8690500e-024
  3.9086315e+002  6.2911400e-024
  3.9096972e+002  5.9647800e-024
  3.9107639e+002  6.0645100e-024
  3.9118296e+002  6.1298100e-024
  3.9128954e+002  6.4159400e-024
  3.9139611e+002  6.3488100e-024
  3.9150268e+002  6.1575900e-024
  3.9160935e+002  5.9623600e-024
  3.9171593e+002  6.2958300e-024
  3.9182250e+002  6.2708900e-024
  3.9192917e+002  6.1187300e-024
  3.9203574e+002  6.3393300e-024
  3.9214231e+002  6.5936000e-024
  3.9224899e+002  6.4595700e-024
  3.9235556e+002  6.6766800e-024
  3.9246223e+002  6.6624300e-024
  3.9256880e+002  6.8583400e-024
  3.9267548e+002  7.2550300e-024
  3.9278205e+002  6.9685100e-024
  3.9288872e+002  7.0031400e-024
  3.9299529e+002  7.2661200e-024
  3.9310196e+002  7.3801000e-024
  3.9320854e+002  7.4945400e-024
  3.9331521e+002  7.6525400e-024
  3.9342188e+002  8.1405500e-024
  3.9352845e+002  7.9024100e-024
  3.9363513e+002  8.2860600e-024
  3.9374170e+002  8.5395800e-024
  3.9384837e+002  8.5265400e-024
  3.9395504e+002  8.9225800e-024
  3.9406161e+002  8.6811200e-024
  3.9416829e+002  9.3020500e-024
  3.9427496e+002  9.3268300e-024
  3.9438163e+002  9.6613100e-024
  3.9448820e+002  9.5474300e-024
  3.9459488e+002  9.7110700e-024
  3.9470155e+002  9.6945000e-024
  3.9480822e+002  9.8527000e-024
  3.9491489e+002  9.8134400e-024
  3.9502146e+002  1.0213900e-023
  3.9512814e+002  9.9146100e-024
  3.9523481e+002  1.0129800e-023
  3.9534148e+002  1.0687600e-023
  3.9544815e+002  1.0381900e-023
  3.9555483e+002  1.0418900e-023
  3.9566140e+002  1.0511100e-023
  3.9576807e+002  1.0570100e-023
  3.9587474e+002  1.0897300e-023
  3.9598141e+002  1.0657400e-023
  3.9608809e+002  1.0203800e-023
  3.9619476e+002  1.0135700e-023
  3.9630143e+002  1.0403200e-023
  3.9640810e+002  1.0350000e-023
  3.9651478e+002  1.0004800e-023
  3.9662145e+002  1.0071500e-023
  3.9672812e+002  9.9981400e-024
  3.9683469e+002  9.5187000e-024
  3.9694136e+002  9.3904400e-024
  3.9704804e+002  9.5567900e-024
  3.9715471e+002  9.2941000e-024
  3.9726138e+002  9.4914800e-024
  3.9728657e+002  9.4734500e-024
  3.9753431e+002  9.6552500e-024
  3.9778214e+002  9.6338000e-024
  3.9802978e+002  9.6801900e-024
  3.9827752e+002  9.2890800e-024
  3.9852505e+002  9.5938900e-024
  3.9877269e+002  9.6935900e-024
  3.9902022e+002  1.0005400e-023
  3.9926766e+002  1.0267900e-023
  3.9951509e+002  1.0551000e-023
  3.9976253e+002  1.0850200e-023
  4.0000986e+002  1.1041700e-023
  4.0025720e+002  1.1403100e-023
  4.0050443e+002  1.2201400e-023
  4.0075167e+002  1.2497000e-023
  4.0099881e+002  1.2634400e-023
  4.0124594e+002  1.3394900e-023
  4.0149308e+002  1.3909000e-023
  4.0174011e+002  1.4109800e-023
  4.0198705e+002  1.4199500e-023
  4.0223398e+002  1.4501600e-023
  4.0248092e+002  1.4817900e-023
  4.0272775e+002  1.4589800e-023
  4.0297459e+002  1.4865500e-023
  4.0322143e+002  1.4790900e-023
  4.0346806e+002  1.4664700e-023
  4.0371480e+002  1.4695500e-023
  4.0396143e+002  1.4257000e-023
  4.0420807e+002  1.4272600e-023
  4.0445460e+002  1.4486400e-023
  4.0470104e+002  1.4545500e-023
  4.0494757e+002  1.4457500e-023
  4.0519391e+002  1.4529800e-023
  4.0544035e+002  1.4891400e-023
  4.0568668e+002  1.5217300e-023
  4.0593292e+002  1.5498100e-023
  4.0617915e+002  1.6051400e-023
  4.0642539e+002  1.6474700e-023
  4.0667152e+002  1.7570100e-023
  4.0691756e+002  1.8400500e-023
  4.0716370e+002  1.9402700e-023
  4.0740973e+002  2.0285200e-023
  4.0765567e+002  2.1357800e-023
  4.0790160e+002  2.2357500e-023
  4.0814744e+002  2.3843200e-023
  4.0839327e+002  2.4658200e-023
  4.0863911e+002  2.5187900e-023
  4.0888485e+002  2.5746600e-023
  4.0913058e+002  2.6619400e-023
  4.0937622e+002  2.6727700e-023
  4.0962185e+002  2.7361200e-023
  4.0986739e+002  2.7493200e-023
  4.1011292e+002  2.7726000e-023
  4.1035846e+002  2.7923900e-023
  4.1060390e+002  2.7843100e-023
  4.1084923e+002  2.7789500e-023
  4.1109457e+002  2.7738200e-023
  4.1133990e+002  2.7485900e-023
  4.1158514e+002  2.6922000e-023
  4.1183037e+002  2.6863800e-023
  4.1207561e+002  2.6357600e-023
  4.1232075e+002  2.5863800e-023
  4.1256578e+002  2.5559500e-023
  4.1281082e+002  2.5154700e-023
  4.1305585e+002  2.5241300e-023
  4.1330079e+002  2.5005200e-023
  4.1354573e+002  2.5077200e-023
  4.1379056e+002  2.5192800e-023
  4.1403540e+002  2.5564100e-023
  4.1428023e+002  2.6353000e-023
  4.1452497e+002  2.7144200e-023
  4.1476961e+002  2.7770600e-023
  4.1501434e+002  2.9080500e-023
  4.1525888e+002  3.0350600e-023
  4.1550351e+002  3.1243400e-023
  4.1574805e+002  3.2275400e-023
  4.1599248e+002  3.3356200e-023
  4.1623692e+002  3.4624400e-023
  4.1648136e+002  3.5485500e-023
  4.1672569e+002  3.6284600e-023
  4.1696993e+002  3.6972200e-023
  4.1721426e+002  3.7267600e-023
  4.1745850e+002  3.8020400e-023
  4.1770264e+002  3.8267200e-023
  4.1794677e+002  3.7962100e-023
  4.1819081e+002  3.8143000e-023
  4.1843495e+002  3.7994000e-023
  4.1867888e+002  3.7769700e-023
  4.1892292e+002  3.7457000e-023
  4.1916675e+002  3.7463600e-023
  4.1941069e+002  3.7534300e-023
  4.1965453e+002  3.7270900e-023
  4.1989826e+002  3.7440400e-023
  4.2014200e+002  3.8026600e-023
  4.2038573e+002  3.8310600e-023
  4.2062937e+002  3.8998500e-023
  4.2087301e+002  3.9912400e-023
  4.2111664e+002  4.1111900e-023
  4.2136018e+002  4.2668400e-023
  4.2160361e+002  4.4139200e-023
  4.2184705e+002  4.5957500e-023
  4.2209049e+002  4.8069200e-023
  4.2233382e+002  5.0140800e-023
  4.2257716e+002  5.2529100e-023
  4.2282050e+002  5.5151100e-023
  4.2306373e+002  5.7085400e-023
  4.2330687e+002  5.9479200e-023
  4.2355010e+002  6.1523100e-023
  4.2379314e+002  6.3999700e-023
  4.2403628e+002  6.6304400e-023
  4.2427931e+002  6.8382600e-023
  4.2452225e+002  6.9900300e-023
  4.2476519e+002  7.1243200e-023
  4.2500812e+002  7.2391200e-023
  4.2525096e+002  7.3149600e-023
  4.2549379e+002  7.4047500e-023
  4.2573663e+002  7.4430900e-023
  4.2597937e+002  7.3658200e-023
  4.2622200e+002  7.3425100e-023
  4.2646474e+002  7.3078500e-023
  4.2670728e+002  7.2614900e-023
  4.2694991e+002  7.1789700e-023
  4.2719245e+002  7.0849100e-023
  4.2743488e+002  6.9591500e-023
  4.2767732e+002  6.8518200e-023
  4.2791976e+002  6.7427600e-023
  4.2816209e+002  6.6233400e-023
  4.2840443e+002  6.5056400e-023
  4.2864677e+002  6.4457100e-023
  4.2888900e+002  6.3924000e-023
  4.2913124e+002  6.3554300e-023
  4.2937338e+002  6.3280500e-023
  4.2961551e+002  6.3410500e-023
  4.2985755e+002  6.4174800e-023
  4.3009959e+002  6.5810800e-023
  4.3034162e+002  6.6763800e-023
  4.3058356e+002  6.8639200e-023
  4.3082549e+002  7.0756500e-023
  4.3106743e+002  7.3301500e-023
  4.3130927e+002  7.5223200e-023
  4.3155100e+002  7.7623500e-023
  4.3179284e+002  8.0020800e-023
  4.3203448e+002  8.2307600e-023
  4.3227621e+002  8.4231200e-023
  4.3251785e+002  8.6409800e-023
  4.3275949e+002  8.7561100e-023
  4.3300102e+002  8.9043500e-023
  4.3324256e+002  8.9653900e-023
  4.3348400e+002  8.9751000e-023
  4.3372543e+002  9.0091400e-023
  4.3396687e+002  8.9544300e-023
  4.3420821e+002  8.9392400e-023
  4.3444954e+002  8.9144300e-023
  4.3469088e+002  8.9164200e-023
  4.3493212e+002  8.8164900e-023
  4.3517335e+002  8.7289500e-023
  4.3541449e+002  8.7227200e-023
  4.3565563e+002  8.7216800e-023
  4.3589666e+002  8.7029300e-023
  4.3613780e+002  8.7915100e-023
  4.3637873e+002  8.8363100e-023
  4.3661977e+002  8.9454300e-023
  4.3686071e+002  9.1416800e-023
  4.3710154e+002  9.3498500e-023
  4.3734248e+002  9.5897500e-023
  4.3758322e+002  9.8898600e-023
  4.3782405e+002  1.0091600e-022
  4.3806479e+002  1.0429700e-022
  4.3830553e+002  1.0828500e-022
  4.3854616e+002  1.1266100e-022
  4.3878680e+002  1.1741000e-022
  4.3902744e+002  1.2206600e-022
  4.3926798e+002  1.2669900e-022
  4.3950851e+002  1.3175600e-022
  4.3974895e+002  1.3634400e-022
  4.3998939e+002  1.4155300e-022
  4.4022982e+002  1.4586600e-022
  4.4047016e+002  1.5061600e-022
  4.4071050e+002  1.5531100e-022
  4.4095083e+002  1.5949100e-022
  4.4119107e+002  1.6368500e-022
  4.4143131e+002  1.6743900e-022
  4.4167144e+002  1.7089100e-022
  4.4191158e+002  1.7386200e-022
  4.4215172e+002  1.7618200e-022
  4.4239175e+002  1.7821000e-022
  4.4263179e+002  1.7941900e-022
  4.4287183e+002  1.7958900e-022
  4.4311176e+002  1.7993400e-022
  4.4335170e+002  1.7947500e-022
  4.4359154e+002  1.7781300e-022
  4.4383147e+002  1.7594500e-022
  4.4407121e+002  1.7374700e-022
  4.4431105e+002  1.7134500e-022
  4.4455078e+002  1.6843400e-022
  4.4479052e+002  1.6518900e-022
  4.4503016e+002  1.6196400e-022
  4.4526980e+002  1.5910700e-022
  4.4550943e+002  1.5653000e-022
  4.4574897e+002  1.5384200e-022
  4.4598851e+002  1.5150000e-022
  4.4622794e+002  1.5029000e-022
  4.4646748e+002  1.4920600e-022
  4.4670692e+002  1.4824700e-022
  4.4694625e+002  1.4820200e-022
  4.4718559e+002  1.4929700e-022
  4.4742493e+002  1.5097300e-022
  4.4766426e+002  1.5320700e-022
  4.4790350e+002  1.5596600e-022
  4.4814264e+002  1.5948800e-022
  4.4838188e+002  1.6354700e-022
  4.4862101e+002  1.6761100e-022
  4.4886015e+002  1.7292200e-022
  4.4909919e+002  1.7770000e-022
  4.4933822e+002  1.8223400e-022
  4.4957726e+002  1.8652100e-022
  4.4981620e+002  1.9018500e-022
  4.5005513e+002  1.9316200e-022
  4.5029407e+002  1.9604000e-022
  4.5053291e+002  1.9796800e-022
  4.5077175e+002  1.9989700e-022
  4.5101058e+002  2.0069300e-022
  4.5124932e+002  2.0100500e-022
  4.5148806e+002  2.0085100e-022
  4.5172679e+002  2.0002000e-022
  4.5196543e+002  1.9905800e-022
  4.5220407e+002  1.9783300e-022
  4.5244271e+002  1.9688300e-022
  4.5268134e+002  1.9570600e-022
  4.5291988e+002  1.9454200e-022
  4.5315832e+002  1.9332000e-022
  4.5339685e+002  1.9289600e-022
  4.5363529e+002  1.9247900e-022
  4.5387363e+002  1.9303600e-022
  4.5411207e+002  1.9432200e-022
  4.5435040e+002  1.9551800e-022
  4.5458874e+002  1.9751400e-022
  4.5482698e+002  2.0073400e-022
  4.5506521e+002  2.0508200e-022
  4.5530345e+002  2.0965500e-022
  4.5554159e+002  2.1560600e-022
  4.5577983e+002  2.2163900e-022
  4.5601786e+002  2.2803100e-022
  4.5625600e+002  2.3568900e-022
  4.5649404e+002  2.4373500e-022
  4.5673207e+002  2.5176500e-022
  4.5697011e+002  2.6018500e-022
  4.5720805e+002  2.6921500e-022
  4.5744599e+002  2.7817200e-022
  4.5768392e+002  2.8727200e-022
  4.5792176e+002  2.9668000e-022
  4.5815960e+002  3.0606200e-022
  4.5839743e+002  3.1579100e-022
  4.5863517e+002  3.2525500e-022
  4.5887291e+002  3.3439900e-022
  4.5911065e+002  3.4436000e-022
  4.5934838e+002  3.5341100e-022
  4.5958602e+002  3.6245800e-022
  4.5982366e+002  3.7112100e-022
  4.6006120e+002  3.7930400e-022
  4.6029883e+002  3.8701900e-022
  4.6053637e+002  3.9360400e-022
  4.6077391e+002  3.9967500e-022
  4.6101134e+002  4.0444200e-022
  4.6124878e+002  4.0794000e-022
  4.6148622e+002  4.1069200e-022
  4.6172366e+002  4.1172600e-022
  4.6196099e+002  4.1133100e-022
  4.6219833e+002  4.0966500e-022
  4.6243567e+002  4.0724300e-022
  4.6267291e+002  4.0299800e-022
  4.6291014e+002  3.9891200e-022
  4.6314738e+002  3.9406100e-022
  4.6338462e+002  3.8780400e-022
  4.6362176e+002  3.8177300e-022
  4.6385889e+002  3.7541800e-022
  4.6409603e+002  3.6908300e-022
  4.6433307e+002  3.6301900e-022
  4.6457010e+002  3.5721900e-022
  4.6480714e+002  3.5177700e-022
  4.6504418e+002  3.4770800e-022
  4.6528112e+002  3.4388400e-022
  4.6551805e+002  3.4117500e-022
  4.6575499e+002  3.3895700e-022
  4.6599183e+002  3.3798300e-022
  4.6622877e+002  3.3827900e-022
  4.6646560e+002  3.3990900e-022
  4.6670234e+002  3.4235800e-022
  4.6693918e+002  3.4571000e-022
  4.6717592e+002  3.5076300e-022
  4.6741265e+002  3.5634800e-022
  4.6764929e+002  3.6312300e-022
  4.6788603e+002  3.6955900e-022
  4.6812267e+002  3.7638300e-022
  4.6835930e+002  3.8355900e-022
  4.6859584e+002  3.8986800e-022
  4.6883248e+002  3.9638600e-022
  4.6906902e+002  4.0238500e-022
  4.6930555e+002  4.0750300e-022
  4.6954199e+002  4.1121700e-022
  4.6977853e+002  4.1490100e-022
  4.7001497e+002  4.1811300e-022
  4.7025140e+002  4.2029400e-022
  4.7048774e+002  4.2175100e-022
  4.7072408e+002  4.2224700e-022
  4.7096042e+002  4.2204800e-022
  4.7119675e+002  4.2175400e-022
  4.7143309e+002  4.2108900e-022
  4.7166933e+002  4.2038500e-022
  4.7190557e+002  4.1949200e-022
  4.7214180e+002  4.1886300e-022
  4.7237804e+002  4.1830200e-022
  4.7261418e+002  4.1779000e-022
  4.7285032e+002  4.1833400e-022
  4.7308645e+002  4.1842900e-022
  4.7332259e+002  4.1998700e-022
  4.7355863e+002  4.2239700e-022
  4.7379467e+002  4.2525600e-022
  4.7403070e+002  4.2902800e-022
  4.7426674e+002  4.3409800e-022
  4.7450278e+002  4.3983600e-022
  4.7473872e+002  4.4656600e-022
  4.7497465e+002  4.5425700e-022
  4.7521059e+002  4.6326200e-022
  4.7544643e+002  4.7343500e-022
  4.7568237e+002  4.8433700e-022
  4.7591820e+002  4.9614000e-022
  4.7615404e+002  5.0875400e-022
  4.7638978e+002  5.2126400e-022
  4.7662562e+002  5.3486000e-022
  4.7686136e+002  5.4926400e-022
  4.7709709e+002  5.6368100e-022
  4.7733283e+002  5.7821600e-022
  4.7756857e+002  5.9367000e-022
  4.7780421e+002  6.0894500e-022
  4.7803984e+002  6.2483600e-022
  4.7827548e+002  6.4104300e-022
  4.7851112e+002  6.5697000e-022
  4.7874666e+002  6.7318100e-022
  4.7898229e+002  6.8991000e-022
  4.7921783e+002  7.0624400e-022
  4.7945337e+002  7.2273200e-022
  4.7968891e+002  7.3867500e-022
  4.7992434e+002  7.5462800e-022
  4.8015978e+002  7.6952500e-022
  4.8039532e+002  7.8401100e-022
  4.8063066e+002  7.9759300e-022
  4.8086610e+002  8.1039300e-022
  4.8110153e+002  8.2094700e-022
  4.8133687e+002  8.3121700e-022
  4.8157221e+002  8.3885300e-022
  4.8180755e+002  8.4501200e-022
  4.8204288e+002  8.4968700e-022
  4.8227812e+002  8.5266100e-022
  4.8251346e+002  8.5391900e-022
  4.8274870e+002  8.5343000e-022
  4.8298393e+002  8.5133100e-022
  4.8321917e+002  8.4734000e-022
  4.8345431e+002  8.4289900e-022
  4.8368955e+002  8.3680200e-022
  4.8392469e+002  8.3026200e-022
  4.8415982e+002  8.2277600e-022
  4.8439496e+002  8.1445900e-022
  4.8463010e+002  8.0592700e-022
  4.8486514e+002  7.9726700e-022
  4.8510027e+002  7.8876100e-022
  4.8533531e+002  7.8011400e-022
  4.8557035e+002  7.7250800e-022
  4.8580539e+002  7.6476500e-022
  4.8604042e+002  7.5792100e-022
  4.8627536e+002  7.5239100e-022
  4.8651030e+002  7.4746500e-022
  4.8674534e+002  7.4372500e-022
  4.8698028e+002  7.4181500e-022
  4.8721511e+002  7.4015900e-022
  4.8745005e+002  7.4056000e-022
  4.8768499e+002  7.4177200e-022
  4.8791983e+002  7.4493500e-022
  4.8815466e+002  7.4917700e-022
  4.8838950e+002  7.5463500e-022
  4.8862434e+002  7.6052600e-022
  4.8885918e+002  7.6731400e-022
  4.8909392e+002  7.7485900e-022
  4.8932875e+002  7.8259200e-022
  4.8956349e+002  7.9055400e-022
  4.8979823e+002  7.9880600e-022
  4.9003297e+002  8.0653600e-022
  4.9026770e+002  8.1417900e-022
  4.9050244e+002  8.2173600e-022
  4.9073708e+002  8.2791500e-022
  4.9097182e+002  8.3417100e-022
  4.9120646e+002  8.3936500e-022
  4.9144109e+002  8.4369800e-022
  4.9167573e+002  8.4713100e-022
  4.9191037e+002  8.5137300e-022
  4.9214501e+002  8.5395200e-022
  4.9237954e+002  8.5621500e-022
  4.9261418e+002  8.5782500e-022
  4.9284872e+002  8.5919100e-022
  4.9308326e+002  8.6080500e-022
  4.9331780e+002  8.6222700e-022
  4.9355233e+002  8.6383100e-022
  4.9378687e+002  8.6499500e-022
  4.9402131e+002  8.6693500e-022
  4.9425585e+002  8.6917800e-022
  4.9449028e+002  8.7207300e-022
  4.9472472e+002  8.7572500e-022
  4.9495926e+002  8.7964000e-022
  4.9519370e+002  8.8416600e-022
  4.9542814e+002  8.8997600e-022
  4.9566247e+002  8.9718100e-022
  4.9589691e+002  9.0476800e-022
  4.9613135e+002  9.1377300e-022
  4.9636569e+002  9.2384800e-022
  4.9660003e+002  9.3550300e-022
  4.9683446e+002  9.4748500e-022
  4.9706880e+002  9.6061500e-022
  4.9730314e+002  9.7535200e-022
  4.9753748e+002  9.9099200e-022
  4.9777171e+002  1.0076900e-021
  4.9800605e+002  1.0249100e-021
  4.9824039e+002  1.0441000e-021
  4.9847463e+002  1.0626600e-021
  4.9870887e+002  1.0824600e-021
  4.9894320e+002  1.1031600e-021
  4.9917744e+002  1.1244300e-021
  4.9941168e+002  1.1455700e-021
  4.9964592e+002  1.1680800e-021
  4.9988015e+002  1.1907300e-021
  5.0011439e+002  1.2149100e-021
  5.0034853e+002  1.2381700e-021
  5.0058277e+002  1.2616100e-021
  5.0081691e+002  1.2864700e-021
  5.0105114e+002  1.3110100e-021
  5.0128528e+002  1.3356400e-021
  5.0151942e+002  1.3600900e-021
  5.0175366e+002  1.3845800e-021
  5.0198780e+002  1.4080700e-021
  5.0222193e+002  1.4316400e-021
  5.0245607e+002  1.4552800e-021
  5.0269021e+002  1.4769300e-021
  5.0292425e+002  1.4980400e-021
  5.0315838e+002  1.5188800e-021
  5.0339252e+002  1.5379700e-021
  5.0362656e+002  1.5557800e-021
  5.0386070e+002  1.5722800e-021
  5.0409474e+002  1.5874500e-021
  5.0432877e+002  1.6007500e-021
  5.0456291e+002  1.6125400e-021
  5.0479695e+002  1.6228200e-021
  5.0503099e+002  1.6308900e-021
  5.0526503e+002  1.6380600e-021
  5.0549906e+002  1.6424900e-021
  5.0573310e+002  1.6463800e-021
  5.0596714e+002  1.6472000e-021
  5.0620118e+002  1.6473400e-021
  5.0643521e+002  1.6455500e-021
  5.0666915e+002  1.6431600e-021
  5.0690319e+002  1.6389900e-021
  5.0713723e+002  1.6341500e-021
  5.0737117e+002  1.6279000e-021
  5.0760520e+002  1.6210000e-021
  5.0783914e+002  1.6133300e-021
  5.0807308e+002  1.6064300e-021
  5.0830712e+002  1.5986700e-021
  5.0854106e+002  1.5909500e-021
  5.0877499e+002  1.5830400e-021
  5.0900903e+002  1.5764500e-021
  5.0924297e+002  1.5695000e-021
  5.0947691e+002  1.5635000e-021
  5.0971084e+002  1.5583000e-021
  5.0994478e+002  1.5543300e-021
  5.1017872e+002  1.5500300e-021
  5.1041266e+002  1.5473300e-021
  5.1064660e+002  1.5459000e-021
  5.1088053e+002  1.5457900e-021
  5.1111447e+002  1.5460800e-021
  5.1134841e+002  1.5477600e-021
  5.1158235e+002  1.5508200e-021
  5.1181618e+002  1.5553200e-021
  5.1205012e+002  1.5598500e-021
  5.1228406e+002  1.5662600e-021
  5.1251800e+002  1.5722400e-021
  5.1275184e+002  1.5797800e-021
  5.1298577e+002  1.5870600e-021
  5.1321971e+002  1.5960000e-021
  5.1345365e+002  1.6042900e-021
  5.1368749e+002  1.6134100e-021
  5.1392143e+002  1.6227300e-021
  5.1415526e+002  1.6319600e-021
  5.1438920e+002  1.6408100e-021
  5.1462314e+002  1.6501200e-021
  5.1485698e+002  1.6588400e-021
  5.1509091e+002  1.6679300e-021
  5.1532475e+002  1.6755400e-021
  5.1555869e+002  1.6842700e-021
  5.1579253e+002  1.6917300e-021
  5.1602647e+002  1.7003900e-021
  5.1626040e+002  1.7067200e-021
  5.1649424e+002  1.7144500e-021
  5.1672818e+002  1.7217700e-021
  5.1696202e+002  1.7287800e-021
  5.1719595e+002  1.7355300e-021
  5.1742979e+002  1.7422800e-021
  5.1766373e+002  1.7486200e-021
  5.1789757e+002  1.7559900e-021
  5.1813151e+002  1.7626500e-021
  5.1836544e+002  1.7699600e-021
  5.1859928e+002  1.7769500e-021
  5.1883322e+002  1.7847800e-021
  5.1906716e+002  1.7923500e-021
  5.1930099e+002  1.8014700e-021
  5.1953493e+002  1.8091200e-021
  5.1976887e+002  1.8181400e-021
  5.2000271e+002  1.8283300e-021
  5.2023665e+002  1.8386300e-021
  5.2047058e+002  1.8491500e-021
  5.2070442e+002  1.8613200e-021
  5.2093836e+002  1.8731800e-021
  5.2117230e+002  1.8860900e-021
  5.2140623e+002  1.9000800e-021
  5.2164017e+002  1.9147700e-021
  5.2187411e+002  1.9293200e-021
  5.2210805e+002  1.9459400e-021
  5.2234199e+002  1.9625600e-021
  5.2257592e+002  1.9806900e-021
  5.2280986e+002  1.9982900e-021
  5.2304380e+002  2.0173300e-021
  5.2327774e+002  2.0369900e-021
  5.2351167e+002  2.0572500e-021
  5.2374561e+002  2.0779300e-021
  5.2397955e+002  2.0998900e-021
  5.2421359e+002  2.1219400e-021
  5.2444753e+002  2.1444300e-021
  5.2468146e+002  2.1664300e-021
  5.2491550e+002  2.1899500e-021
  5.2514944e+002  2.2131500e-021
  5.2538348e+002  2.2370400e-021
  5.2561741e+002  2.2600500e-021
  5.2585145e+002  2.2846100e-021
  5.2608549e+002  2.3088100e-021
  5.2631943e+002  2.3332600e-021
  5.2655347e+002  2.3578000e-021
  5.2678750e+002  2.3820900e-021
  5.2702154e+002  2.4062700e-021
  5.2725558e+002  2.4304300e-021
  5.2748962e+002  2.4543300e-021
  5.2772365e+002  2.4788600e-021
  5.2795769e+002  2.5025100e-021
  5.2819173e+002  2.5262300e-021
  5.2842577e+002  2.5485600e-021
  5.2865990e+002  2.5717400e-021
  5.2889394e+002  2.5942300e-021
  5.2912808e+002  2.6159200e-021
  5.2936212e+002  2.6371400e-021
  5.2959626e+002  2.6579300e-021
  5.2983029e+002  2.6776000e-021
  5.3006443e+002  2.6970700e-021
  5.3029857e+002  2.7148900e-021
  5.3053271e+002  2.7328300e-021
  5.3076684e+002  2.7493600e-021
  5.3100098e+002  2.7648500e-021
  5.3123512e+002  2.7804300e-021
  5.3146926e+002  2.7940500e-021
  5.3170349e+002  2.8067400e-021
  5.3193763e+002  2.8185600e-021
  5.3217187e+002  2.8287200e-021
  5.3240601e+002  2.8391400e-021
  5.3264024e+002  2.8469200e-021
  5.3287448e+002  2.8543100e-021
  5.3310872e+002  2.8609200e-021
  5.3334296e+002  2.8657700e-021
  5.3357720e+002  2.8699900e-021
  5.3381143e+002  2.8733500e-021
  5.3404567e+002  2.8747500e-021
  5.3427991e+002  2.8764000e-021
  5.3451425e+002  2.8762200e-021
  5.3474848e+002  2.8753600e-021
  5.3498282e+002  2.8743000e-021
  5.3521716e+002  2.8738700e-021
  5.3545150e+002  2.8715100e-021
  5.3568583e+002  2.8703300e-021
  5.3592017e+002  2.8687600e-021
  5.3615451e+002  2.8669500e-021
  5.3638885e+002  2.8651000e-021
  5.3662328e+002  2.8647200e-021
  5.3685762e+002  2.8640800e-021
  5.3709206e+002  2.8651900e-021
  5.3732640e+002  2.8657300e-021
  5.3756083e+002  2.8675200e-021
  5.3779527e+002  2.8702500e-021
  5.3802971e+002  2.8741900e-021
  5.3826425e+002  2.8787200e-021
  5.3849868e+002  2.8844600e-021
  5.3873312e+002  2.8909200e-021
  5.3896766e+002  2.8986100e-021
  5.3920220e+002  2.9069000e-021
  5.3943663e+002  2.9170300e-021
  5.3967117e+002  2.9267200e-021
  5.3990571e+002  2.9384800e-021
  5.4014035e+002  2.9497400e-021
  5.4037488e+002  2.9626800e-021
  5.4060952e+002  2.9760600e-021
  5.4084406e+002  2.9895000e-021
  5.4107870e+002  3.0031700e-021
  5.4131333e+002  3.0175400e-021
  5.4154797e+002  3.0321900e-021
  5.4178261e+002  3.0468200e-021
  5.4201725e+002  3.0607300e-021
  5.4225198e+002  3.0759700e-021
  5.4248662e+002  3.0906100e-021
  5.4272136e+002  3.1045900e-021
  5.4295610e+002  3.1186200e-021
  5.4319083e+002  3.1327500e-021
  5.4342557e+002  3.1462800e-021
  5.4366031e+002  3.1597300e-021
  5.4389515e+002  3.1720700e-021
  5.4412988e+002  3.1850100e-021
  5.4436472e+002  3.1969800e-021
  5.4459956e+002  3.2084300e-021
  5.4483440e+002  3.2196200e-021
  5.4506923e+002  3.2310000e-021
  5.4530417e+002  3.2400100e-021
  5.4553901e+002  3.2503400e-021
  5.4577394e+002  3.2592400e-021
  5.4600888e+002  3.2680300e-021
  5.4624382e+002  3.2766700e-021
  5.4647876e+002  3.2854700e-021
  5.4671369e+002  3.2935900e-021
  5.4694873e+002  3.3015400e-021
  5.4718377e+002  3.3088200e-021
  5.4741871e+002  3.3166100e-021
  5.4765374e+002  3.3233600e-021
  5.4788888e+002  3.3311500e-021
  5.4812392e+002  3.3377700e-021
  5.4835896e+002  3.3451000e-021
  5.4859409e+002  3.3514600e-021
  5.4882923e+002  3.3595800e-021
  5.4906437e+002  3.3654500e-021
  5.4929950e+002  3.3724900e-021
  5.4953474e+002  3.3793000e-021
  5.4976988e+002  3.3862800e-021
  5.5000512e+002  3.3933200e-021
  5.5024035e+002  3.4007600e-021
  5.5047559e+002  3.4081900e-021
  5.5071083e+002  3.4159200e-021
  5.5094617e+002  3.4231200e-021
  5.5118150e+002  3.4311100e-021
  5.5141674e+002  3.4394300e-021
  5.5165208e+002  3.4475100e-021
  5.5188751e+002  3.4555000e-021
  5.5212285e+002  3.4641700e-021
  5.5235829e+002  3.4724200e-021
  5.5259373e+002  3.4819700e-021
  5.5282916e+002  3.4907100e-021
  5.5306460e+002  3.5002000e-021
  5.5330004e+002  3.5097500e-021
  5.5353557e+002  3.5201500e-021
  5.5377111e+002  3.5308500e-021
  5.5400665e+002  3.5413400e-021
  5.5424219e+002  3.5524600e-021
  5.5447772e+002  3.5638700e-021
  5.5471336e+002  3.5758700e-021
  5.5494900e+002  3.5892100e-021
  5.5518463e+002  3.6018200e-021
  5.5542027e+002  3.6155800e-021
  5.5565591e+002  3.6301600e-021
  5.5589165e+002  3.6457100e-021
  5.5612738e+002  3.6609700e-021
  5.5636312e+002  3.6773300e-021
  5.5659886e+002  3.6945200e-021
  5.5683469e+002  3.7121600e-021
  5.5707043e+002  3.7303200e-021
  5.5730627e+002  3.7485100e-021
  5.5754211e+002  3.7685900e-021
  5.5777804e+002  3.7895900e-021
  5.5801388e+002  3.8099300e-021
  5.5824982e+002  3.8321000e-021
  5.5848575e+002  3.8535900e-021
  5.5872169e+002  3.8760500e-021
  5.5895773e+002  3.8988100e-021
  5.5919366e+002  3.9223200e-021
  5.5942970e+002  3.9454300e-021
  5.5966574e+002  3.9696900e-021
  5.5990188e+002  3.9938500e-021
  5.6013791e+002  4.0184700e-021
  5.6037405e+002  4.0417800e-021
  5.6061019e+002  4.0661700e-021
  5.6084632e+002  4.0897100e-021
  5.6108256e+002  4.1138300e-021
  5.6131880e+002  4.1368800e-021
  5.6155503e+002  4.1608800e-021
  5.6179127e+002  4.1834400e-021
  5.6202751e+002  4.2054800e-021
  5.6226384e+002  4.2271000e-021
  5.6250018e+002  4.2488400e-021
  5.6273652e+002  4.2695100e-021
  5.6297286e+002  4.2906700e-021
  5.6320929e+002  4.3091900e-021
  5.6344573e+002  4.3286900e-021
  5.6368217e+002  4.3467200e-021
  5.6391870e+002  4.3654300e-021
  5.6415514e+002  4.3827100e-021
  5.6439168e+002  4.3993100e-021
  5.6462821e+002  4.4157100e-021
  5.6486475e+002  4.4317800e-021
  5.6510139e+002  4.4476600e-021
  5.6533802e+002  4.4627600e-021
  5.6557466e+002  4.4774300e-021
  5.6581130e+002  4.4919000e-021
  5.6604803e+002  4.5064100e-021
  5.6628477e+002  4.5213100e-021
  5.6652151e+002  4.5343900e-021
  5.6675824e+002  4.5480800e-021
  5.6699508e+002  4.5618100e-021
  5.6723192e+002  4.5749100e-021
  5.6746875e+002  4.5883500e-021
  5.6770569e+002  4.6021700e-021
  5.6794253e+002  4.6152400e-021
  5.6817946e+002  4.6290700e-021
  5.6841650e+002  4.6419800e-021
  5.6865344e+002  4.6558400e-021
  5.6889047e+002  4.6699200e-021
  5.6912751e+002  4.6843300e-021
  5.6936455e+002  4.6980600e-021
  5.6960168e+002  4.7124700e-021
  5.6983872e+002  4.7261000e-021
  5.7007596e+002  4.7399500e-021
  5.7031309e+002  4.7522800e-021
  5.7055033e+002  4.7659700e-021
  5.7078747e+002  4.7788800e-021
  5.7102480e+002  4.7921200e-021
  5.7126204e+002  4.8032400e-021
  5.7149938e+002  4.8153300e-021
  5.7173671e+002  4.8255700e-021
  5.7197405e+002  4.8359400e-021
  5.7221149e+002  4.8449700e-021
  5.7244892e+002  4.8541300e-021
  5.7268636e+002  4.8610400e-021
  5.7292380e+002  4.8685100e-021
  5.7316133e+002  4.8734000e-021
  5.7339887e+002  4.8783600e-021
  5.7363641e+002  4.8814500e-021
  5.7387404e+002  4.8834400e-021
  5.7411168e+002  4.8852000e-021
  5.7434932e+002  4.8848800e-021
  5.7458695e+002  4.8836700e-021
  5.7482469e+002  4.8820700e-021
  5.7506242e+002  4.8789100e-021
  5.7530016e+002  4.8752600e-021
  5.7553800e+002  4.8699100e-021
  5.7577583e+002  4.8643000e-021
  5.7601367e+002  4.8575200e-021
  5.7625151e+002  4.8506800e-021
  5.7648944e+002  4.8428200e-021
  5.7672738e+002  4.8342800e-021
  5.7696532e+002  4.8257000e-021
  5.7720335e+002  4.8163400e-021
  5.7744139e+002  4.8063300e-021
  5.7767943e+002  4.7957700e-021
  5.7791756e+002  4.7856600e-021
  5.7815570e+002  4.7757200e-021
  5.7839383e+002  4.7638800e-021
  5.7863197e+002  4.7527700e-021
  5.7887021e+002  4.7420400e-021
  5.7910844e+002  4.7304000e-021
  5.7934668e+002  4.7187600e-021
  5.7958502e+002  4.7068300e-021
  5.7982335e+002  4.6951200e-021
  5.8006169e+002  4.6838100e-021
  5.8030012e+002  4.6722000e-021
  5.8053856e+002  4.6614800e-021
  5.8077700e+002  4.6501600e-021
  5.8101553e+002  4.6393100e-021
  5.8125397e+002  4.6289400e-021
  5.8149261e+002  4.6190300e-021
  5.8173114e+002  4.6079100e-021
  5.8196978e+002  4.5989100e-021
  5.8220841e+002  4.5893900e-021
  5.8244705e+002  4.5810100e-021
  5.8268579e+002  4.5715600e-021
  5.8292452e+002  4.5639300e-021
  5.8316326e+002  4.5549300e-021
  5.8340209e+002  4.5473000e-021
  5.8364093e+002  4.5403200e-021
  5.8387977e+002  4.5340300e-021
  5.8411870e+002  4.5270200e-021
  5.8435764e+002  4.5214100e-021
  5.8459658e+002  4.5155100e-021
  5.8483561e+002  4.5105500e-021
  5.8507465e+002  4.5051400e-021
  5.8531368e+002  4.5010300e-021
  5.8555282e+002  4.4970900e-021
  5.8579196e+002  4.4936000e-021
  5.8603109e+002  4.4898200e-021
  5.8627023e+002  4.4877000e-021
  5.8650946e+002  4.4854200e-021
  5.8674880e+002  4.4844700e-021
  5.8698804e+002  4.4829100e-021
  5.8722737e+002  4.4818000e-021
  5.8746671e+002  4.4814100e-021
  5.8770614e+002  4.4824800e-021
  5.8794558e+002  4.4827100e-021
  5.8818502e+002  4.4834600e-021
  5.8842445e+002  4.4845000e-021
  5.8866399e+002  4.4880200e-021
  5.8890362e+002  4.4908300e-021
  5.8914316e+002  4.4943800e-021
  5.8938279e+002  4.4991800e-021
  5.8962243e+002  4.5040700e-021
  5.8986217e+002  4.5089900e-021
  5.9010190e+002  4.5155100e-021
  5.9034164e+002  4.5216700e-021
  5.9058147e+002  4.5297900e-021
  5.9082131e+002  4.5381700e-021
  5.9106115e+002  4.5475900e-021
  5.9130098e+002  4.5588700e-021
  5.9154092e+002  4.5702800e-021
  5.9178095e+002  4.5827400e-021
  5.9202089e+002  4.5965000e-021
  5.9226092e+002  4.6105200e-021
  5.9250106e+002  4.6262000e-021
  5.9274110e+002  4.6411000e-021
  5.9298123e+002  4.6589700e-021
  5.9322147e+002  4.6767300e-021
  5.9346160e+002  4.6951200e-021
  5.9370194e+002  4.7139700e-021
  5.9394217e+002  4.7328100e-021
  5.9418251e+002  4.7529000e-021
  5.9442285e+002  4.7744200e-021
  5.9466318e+002  4.7935900e-021
  5.9490362e+002  4.8154000e-021
  5.9514405e+002  4.8364300e-021
  5.9538459e+002  4.8571300e-021
  5.9562512e+002  4.8786500e-021
  5.9586566e+002  4.9000400e-021
  5.9610630e+002  4.9209400e-021
  5.9634683e+002  4.9418000e-021
  5.9658757e+002  4.9619800e-021
  5.9682820e+002  4.9830800e-021
  5.9706894e+002  5.0042100e-021
  5.9730977e+002  5.0257900e-021
  5.9755061e+002  5.0466900e-021
  5.9779144e+002  5.0677500e-021
  5.9803228e+002  5.0885500e-021
  5.9821543e+002  5.1308400e-021
  5.9843957e+002  5.1484400e-021
  5.9866361e+002  5.1662800e-021
  5.9888765e+002  5.1831300e-021
  5.9911159e+002  5.1995700e-021
  5.9933553e+002  5.2159300e-021
  5.9955937e+002  5.2298900e-021
  5.9978311e+002  5.2422100e-021
  6.0000695e+002  5.2542100e-021
  6.0023059e+002  5.2636300e-021
  6.0045423e+002  5.2734500e-021
  6.0067787e+002  5.2809500e-021
  6.0090141e+002  5.2883500e-021
  6.0112485e+002  5.2943500e-021
  6.0134829e+002  5.2995300e-021
  6.0157173e+002  5.3023700e-021
  6.0179507e+002  5.3061200e-021
  6.0201831e+002  5.3068300e-021
  6.0224155e+002  5.3078800e-021
  6.0246479e+002  5.3072600e-021
  6.0268793e+002  5.3050100e-021
  6.0291097e+002  5.3022000e-021
  6.0313401e+002  5.2986800e-021
  6.0335695e+002  5.2936600e-021
  6.0357989e+002  5.2879900e-021
  6.0380283e+002  5.2815300e-021
  6.0402567e+002  5.2741600e-021
  6.0424841e+002  5.2650700e-021
  6.0447116e+002  5.2559100e-021
  6.0469380e+002  5.2455400e-021
  6.0491644e+002  5.2351700e-021
  6.0513908e+002  5.2230700e-021
  6.0536152e+002  5.2113400e-021
  6.0558406e+002  5.1976400e-021
  6.0580650e+002  5.1842400e-021
  6.0602884e+002  5.1692800e-021
  6.0625118e+002  5.1537300e-021
  6.0647342e+002  5.1384000e-021
  6.0669566e+002  5.1223900e-021
  6.0691790e+002  5.1054100e-021
  6.0713994e+002  5.0877700e-021
  6.0736208e+002  5.0700700e-021
  6.0758412e+002  5.0519400e-021
  6.0780606e+002  5.0336800e-021
  6.0802800e+002  5.0143500e-021
  6.0824984e+002  4.9945900e-021
  6.0847168e+002  4.9760000e-021
  6.0869352e+002  4.9564700e-021
  6.0891526e+002  4.9366200e-021
  6.0913691e+002  4.9162100e-021
  6.0935855e+002  4.8969100e-021
  6.0958019e+002  4.8762000e-021
  6.0980173e+002  4.8566700e-021
  6.1002317e+002  4.8367200e-021
  6.1024461e+002  4.8161800e-021
  6.1046605e+002  4.7961300e-021
  6.1068739e+002  4.7765700e-021
  6.1090863e+002  4.7571000e-021
  6.1112987e+002  4.7371800e-021
  6.1135111e+002  4.7170000e-021
  6.1157225e+002  4.6977300e-021
  6.1179339e+002  4.6785600e-021
  6.1201443e+002  4.6592600e-021
  6.1223547e+002  4.6387800e-021
  6.1245642e+002  4.6203000e-021
  6.1267736e+002  4.6017500e-021
  6.1289820e+002  4.5841700e-021
  6.1311904e+002  4.5650700e-021
  6.1333978e+002  4.5469100e-021
  6.1356052e+002  4.5292000e-021
  6.1378116e+002  4.5113000e-021
  6.1400180e+002  4.4936000e-021
  6.1422244e+002  4.4765200e-021
  6.1444288e+002  4.4589700e-021
  6.1466342e+002  4.4416600e-021
  6.1488386e+002  4.4252600e-021
  6.1510431e+002  4.4089300e-021
  6.1532465e+002  4.3925000e-021
  6.1554489e+002  4.3764500e-021
  6.1576513e+002  4.3606700e-021
  6.1598537e+002  4.3455800e-021
  6.1620551e+002  4.3299300e-021
  6.1642565e+002  4.3152300e-021
  6.1664569e+002  4.3005200e-021
  6.1686573e+002  4.2859500e-021
  6.1708577e+002  4.2711800e-021
  6.1730572e+002  4.2573200e-021
  6.1752556e+002  4.2431100e-021
  6.1774540e+002  4.2298400e-021
  6.1796514e+002  4.2153900e-021
  6.1818498e+002  4.2029700e-021
  6.1840462e+002  4.1895100e-021
  6.1862426e+002  4.1768900e-021
  6.1884390e+002  4.1650200e-021
  6.1906344e+002  4.1527600e-021
  6.1928299e+002  4.1397500e-021
  6.1950253e+002  4.1281100e-021
  6.1972187e+002  4.1174200e-021
  6.1994131e+002  4.1059100e-021
  6.2016065e+002  4.0941700e-021
  6.2037989e+002  4.0836100e-021
  6.2059923e+002  4.0724300e-021
  6.2081837e+002  4.0608800e-021
  6.2103752e+002  4.0498600e-021
  6.2125666e+002  4.0401800e-021
  6.2147570e+002  4.0295200e-021
  6.2169474e+002  4.0193800e-021
  6.2191378e+002  4.0082900e-021
  6.2213272e+002  3.9984800e-021
  6.2235156e+002  3.9881800e-021
  6.2257040e+002  3.9772600e-021
  6.2278925e+002  3.9673100e-021
  6.2300799e+002  3.9565200e-021
  6.2322673e+002  3.9462500e-021
  6.2344537e+002  3.9365700e-021
  6.2366401e+002  3.9264300e-021
  6.2388265e+002  3.9155700e-021
  6.2410119e+002  3.9054300e-021
  6.2431963e+002  3.8949600e-021
  6.2453818e+002  3.8841700e-021
  6.2475652e+002  3.8737700e-021
  6.2497496e+002  3.8637900e-021
  6.2519330e+002  3.8520600e-021
  6.2541154e+002  3.8415300e-021
  6.2562978e+002  3.8307000e-021
  6.2584802e+002  3.8203700e-021
  6.2606617e+002  3.8096400e-021
  6.2628421e+002  3.7987500e-021
  6.2650235e+002  3.7871100e-021
  6.2672039e+002  3.7750500e-021
  6.2693833e+002  3.7639600e-021
  6.2715627e+002  3.7522600e-021
  6.2737422e+002  3.7409400e-021
  6.2759206e+002  3.7294400e-021
  6.2780990e+002  3.7170100e-021
  6.2802764e+002  3.7065100e-021
  6.2824538e+002  3.6941300e-021
  6.2846302e+002  3.6818700e-021
  6.2868067e+002  3.6700000e-021
  6.2889831e+002  3.6579400e-021
  6.2911585e+002  3.6464900e-021
  6.2933339e+002  3.6353700e-021
  6.2955083e+002  3.6231800e-021
  6.2976827e+002  3.6112500e-021
  6.2998571e+002  3.6002300e-021
  6.3020306e+002  3.5886200e-021
  6.3042040e+002  3.5771400e-021
  6.3063764e+002  3.5646600e-021
  6.3085488e+002  3.5532500e-021
  6.3107202e+002  3.5428100e-021
  6.3128927e+002  3.5317600e-021
  6.3150631e+002  3.5204800e-021
  6.3172335e+002  3.5093600e-021
  6.3194039e+002  3.4982100e-021
  6.3215743e+002  3.4871900e-021
  6.3237437e+002  3.4752900e-021
  6.3259122e+002  3.4636500e-021
  6.3280816e+002  3.4511300e-021
  6.3302500e+002  3.4404000e-021
  6.3324174e+002  3.4291600e-021
  6.3345848e+002  3.4173500e-021
  6.3367522e+002  3.4053900e-021
  6.3389187e+002  3.3925100e-021
  6.3410851e+002  3.3806100e-021
  6.3432505e+002  3.3681200e-021
  6.3454159e+002  3.3555700e-021
  6.3475813e+002  3.3431800e-021
  6.3497458e+002  3.3300100e-021
  6.3519102e+002  3.3174200e-021
  6.3540736e+002  3.3044800e-021
  6.3562370e+002  3.2916700e-021
  6.3584004e+002  3.2784600e-021
  6.3605629e+002  3.2649600e-021
  6.3627253e+002  3.2524400e-021
  6.3648877e+002  3.2392800e-021
  6.3670491e+002  3.2265700e-021
  6.3692095e+002  3.2137500e-021
  6.3713710e+002  3.2010800e-021
  6.3735314e+002  3.1872700e-021
  6.3756908e+002  3.1750000e-021
  6.3778502e+002  3.1625400e-021
  6.3800096e+002  3.1490200e-021
  6.3821691e+002  3.1355000e-021
  6.3843275e+002  3.1230300e-021
  6.3864849e+002  3.1101100e-021
  6.3886423e+002  3.0965000e-021
  6.3907997e+002  3.0829100e-021
  6.3929572e+002  3.0701000e-021
  6.3951136e+002  3.0563000e-021
  6.3972690e+002  3.0433500e-021
  6.3994254e+002  3.0306500e-021
  6.4015808e+002  3.0178000e-021
  6.4037353e+002  3.0042900e-021
  6.4058907e+002  2.9914800e-021
  6.4080441e+002  2.9781800e-021
  6.4101985e+002  2.9662800e-021
  6.4123520e+002  2.9531500e-021
  6.4145054e+002  2.9413700e-021
  6.4166578e+002  2.9290100e-021
  6.4188102e+002  2.9169000e-021
  6.4209626e+002  2.9049600e-021
  6.4231141e+002  2.8935800e-021
  6.4252655e+002  2.8821500e-021
  6.4274159e+002  2.8717400e-021
  6.4295663e+002  2.8602100e-021
  6.4317168e+002  2.8500100e-021
  6.4338662e+002  2.8389900e-021
  6.4360156e+002  2.8296600e-021
  6.4381650e+002  2.8182400e-021
  6.4403134e+002  2.8075500e-021
  6.4424619e+002  2.7973700e-021
  6.4446103e+002  2.7877800e-021
  6.4467577e+002  2.7772100e-021
  6.4489051e+002  2.7676200e-021
  6.4510516e+002  2.7571100e-021
  6.4531990e+002  2.7466200e-021
  6.4553444e+002  2.7364400e-021
  6.4574908e+002  2.7255700e-021
  6.4596363e+002  2.7140900e-021
  6.4617817e+002  2.7054600e-021
  6.4639261e+002  2.6934100e-021
  6.4660705e+002  2.6836500e-021
  6.4682150e+002  2.6723200e-021
  6.4703584e+002  2.6631400e-021
  6.4725018e+002  2.6528500e-021
  6.4746442e+002  2.6442800e-021
  6.4767877e+002  2.6334200e-021
  6.4789301e+002  2.6250200e-021
  6.4810715e+002  2.6150400e-021
  6.4832129e+002  2.6056700e-021
  6.4853544e+002  2.5964300e-021
  6.4874958e+002  2.5867600e-021
  6.4896362e+002  2.5778500e-021
  6.4917766e+002  2.5683900e-021
  6.4939161e+002  2.5590800e-021
  6.4960555e+002  2.5508300e-021
  6.4981949e+002  2.5424200e-021
  6.5003343e+002  2.5332600e-021
  6.5024728e+002  2.5244900e-021
  6.5046102e+002  2.5159000e-021
  6.5067486e+002  2.5071800e-021
  6.5088860e+002  2.4996700e-021
  6.5110235e+002  2.4910000e-021
  6.5131599e+002  2.4823500e-021
  6.5152963e+002  2.4736000e-021
  6.5174327e+002  2.4647900e-021
  6.5195682e+002  2.4563500e-021
  6.5217046e+002  2.4473900e-021
  6.5238390e+002  2.4380200e-021
  6.5259744e+002  2.4305000e-021
  6.5281089e+002  2.4206300e-021
  6.5302433e+002  2.4124400e-021
  6.5323767e+002  2.4031200e-021
  6.5345102e+002  2.3942700e-021
  6.5366436e+002  2.3843200e-021
  6.5387760e+002  2.3752900e-021
  6.5409094e+002  2.3662400e-021
  6.5430409e+002  2.3569800e-021
  6.5451733e+002  2.3482600e-021
  6.5473047e+002  2.3380900e-021
  6.5494361e+002  2.3287800e-021
  6.5515666e+002  2.3206900e-021
  6.5536980e+002  2.3114400e-021
  6.5558284e+002  2.3026300e-021
  6.5579579e+002  2.2943800e-021
  6.5600873e+002  2.2854100e-021
  6.5622167e+002  2.2760900e-021
  6.5643461e+002  2.2666000e-021
  6.5664746e+002  2.2579700e-021
  6.5686030e+002  2.2493300e-021
  6.5707314e+002  2.2412000e-021
  6.5728588e+002  2.2328700e-021
  6.5749863e+002  2.2246600e-021
  6.5771137e+002  2.2157200e-021
  6.5792411e+002  2.2075500e-021
  6.5813676e+002  2.1988700e-021
  6.5834930e+002  2.1903300e-021
  6.5856194e+002  2.1823000e-021
  6.5877448e+002  2.1745300e-021
  6.5898703e+002  2.1654600e-021
  6.5919957e+002  2.1572100e-021
  6.5941201e+002  2.1493600e-021
  6.5962446e+002  2.1407000e-021
  6.5983690e+002  2.1325500e-021
  6.6004924e+002  2.1254400e-021
  6.6026159e+002  2.1173800e-021
  6.6047393e+002  2.1091200e-021
  6.6068617e+002  2.1006200e-021
  6.6089841e+002  2.0936900e-021
  6.6111066e+002  2.0856400e-021
  6.6132290e+002  2.0774000e-021
  6.6153504e+002  2.0700600e-021
  6.6174719e+002  2.0623700e-021
  6.6195933e+002  2.0535600e-021
  6.6217137e+002  2.0463900e-021
  6.6238341e+002  2.0391800e-021
  6.6259546e+002  2.0310500e-021
  6.6280750e+002  2.0231900e-021
  6.6301944e+002  2.0145000e-021
  6.6323139e+002  2.0073500e-021
  6.6344333e+002  1.9987500e-021
  6.6365517e+002  1.9903800e-021
  6.6386702e+002  1.9808100e-021
  6.6407886e+002  1.9728000e-021
  6.6429060e+002  1.9644600e-021
  6.6450235e+002  1.9550200e-021
  6.6471409e+002  1.9459900e-021
  6.6492583e+002  1.9373300e-021
  6.6513747e+002  1.9282200e-021
  6.6534912e+002  1.9186400e-021
  6.6556076e+002  1.9095500e-021
  6.6577240e+002  1.9000000e-021
  6.6598395e+002  1.8899900e-021
  6.6619549e+002  1.8815300e-021
  6.6640703e+002  1.8727800e-021
  6.6661848e+002  1.8632700e-021
  6.6682992e+002  1.8537000e-021
  6.6704136e+002  1.8446400e-021
  6.6725281e+002  1.8351400e-021
  6.6746415e+002  1.8266900e-021
  6.6767549e+002  1.8177400e-021
  6.6788684e+002  1.8084200e-021
  6.6809808e+002  1.7993200e-021
  6.6830942e+002  1.7903400e-021
  6.6852067e+002  1.7807700e-021
  6.6873181e+002  1.7724200e-021
  6.6894305e+002  1.7636100e-021
  6.6915419e+002  1.7546400e-021
  6.6936534e+002  1.7452400e-021
  6.6957638e+002  1.7366300e-021
  6.6978752e+002  1.7279600e-021
  6.6999857e+002  1.7190200e-021
  6.7020961e+002  1.7103100e-021
  6.7042055e+002  1.7022500e-021
  6.7063160e+002  1.6927800e-021
  6.7084254e+002  1.6838500e-021
  6.7105338e+002  1.6758200e-021
  6.7126433e+002  1.6677700e-021
  6.7147517e+002  1.6592000e-021
  6.7168601e+002  1.6517600e-021
  6.7189686e+002  1.6434700e-021
  6.7210770e+002  1.6350700e-021
  6.7231844e+002  1.6254600e-021
  6.7252919e+002  1.6185800e-021
  6.7273993e+002  1.6106800e-021
  6.7295057e+002  1.6030600e-021
  6.7316122e+002  1.5954000e-021
  6.7337186e+002  1.5870000e-021
  6.7358250e+002  1.5786100e-021
  6.7379315e+002  1.5721400e-021
  6.7400369e+002  1.5653600e-021
  6.7421423e+002  1.5577400e-021
  6.7442478e+002  1.5503800e-021
  6.7463522e+002  1.5428900e-021
  6.7484566e+002  1.5356300e-021
  6.7505611e+002  1.5287300e-021
  6.7526655e+002  1.5207800e-021
  6.7547699e+002  1.5141100e-021
  6.7568734e+002  1.5074300e-021
  6.7589768e+002  1.5004700e-021
  6.7610802e+002  1.4925000e-021
  6.7631827e+002  1.4863000e-021
  6.7652861e+002  1.4790600e-021
  6.7673886e+002  1.4718100e-021
  6.7694910e+002  1.4648700e-021
  6.7715924e+002  1.4577400e-021
  6.7736949e+002  1.4518400e-021
  6.7757963e+002  1.4441400e-021
  6.7778977e+002  1.4380700e-021
  6.7799992e+002  1.4314900e-021
  6.7820996e+002  1.4247300e-021
  6.7842000e+002  1.4178600e-021
  6.7863005e+002  1.4112500e-021
  6.7884009e+002  1.4054000e-021
  6.7905013e+002  1.3998400e-021
  6.7926008e+002  1.3931700e-021
  6.7947002e+002  1.3872100e-021
  6.7967996e+002  1.3827400e-021
  6.7988991e+002  1.3763500e-021
  6.8009975e+002  1.3714800e-021
  6.8030959e+002  1.3663600e-021
  6.8051944e+002  1.3608400e-021
  6.8072928e+002  1.3567200e-021
  6.8093913e+002  1.3511100e-021
  6.8114887e+002  1.3469100e-021
  6.8135861e+002  1.3427200e-021
  6.8156836e+002  1.3381500e-021
  6.8177810e+002  1.3341500e-021
  6.8198774e+002  1.3296300e-021
  6.8219749e+002  1.3259600e-021
  6.8240713e+002  1.3212000e-021
  6.8261667e+002  1.3179000e-021
  6.8282632e+002  1.3141500e-021
  6.8303586e+002  1.3103900e-021
  6.8324550e+002  1.3060000e-021
  6.8345505e+002  1.3021300e-021
  6.8366449e+002  1.2978100e-021
  6.8387404e+002  1.2941600e-021
  6.8408348e+002  1.2896500e-021
  6.8429302e+002  1.2847900e-021
  6.8450237e+002  1.2805800e-021
  6.8471181e+002  1.2761500e-021
  6.8492125e+002  1.2716100e-021
  6.8513060e+002  1.2668500e-021
  6.8533994e+002  1.2620500e-021
  6.8554928e+002  1.2571700e-021
  6.8575863e+002  1.2513400e-021
  6.8596787e+002  1.2464100e-021
  6.8617722e+002  1.2410500e-021
  6.8638646e+002  1.2349600e-021
  6.8659570e+002  1.2286200e-021
  6.8680495e+002  1.2219600e-021
  6.8701409e+002  1.2160800e-021
  6.8722323e+002  1.2089000e-021
  6.8743248e+002  1.2028600e-021
  6.8764162e+002  1.1960500e-021
  6.8785067e+002  1.1897500e-021
  6.8805981e+002  1.1839600e-021
  6.8826885e+002  1.1773800e-021
  6.8847800e+002  1.1705500e-021
  6.8868704e+002  1.1628600e-021
  6.8889598e+002  1.1565100e-021
  6.8910503e+002  1.1496900e-021
  6.8931407e+002  1.1435300e-021
  6.8952302e+002  1.1366100e-021
  6.8973196e+002  1.1303500e-021
  6.8994090e+002  1.1233300e-021
  6.9014985e+002  1.1175000e-021
  6.9035869e+002  1.1112300e-021
  6.9056753e+002  1.1047500e-021
  6.9077648e+002  1.0980900e-021
  6.9098532e+002  1.0927000e-021
  6.9119407e+002  1.0857100e-021
  6.9140291e+002  1.0801800e-021
  6.9161175e+002  1.0748400e-021
  6.9182050e+002  1.0686600e-021
  6.9202924e+002  1.0625100e-021
  6.9223798e+002  1.0564100e-021
  6.9244673e+002  1.0508300e-021
  6.9265537e+002  1.0447700e-021
  6.9286412e+002  1.0382800e-021
  6.9307276e+002  1.0328400e-021
  6.9328140e+002  1.0275300e-021
  6.9349005e+002  1.0211100e-021
  6.9369869e+002  1.0158200e-021
  6.9390724e+002  1.0099200e-021
  6.9411588e+002  1.0030400e-021
  6.9432442e+002  9.9765600e-022
  6.9453297e+002  9.9210000e-022
  6.9474151e+002  9.8648900e-022
  6.9495005e+002  9.8044400e-022
  6.9515850e+002  9.7390700e-022
  6.9536704e+002  9.6961300e-022
  6.9557549e+002  9.6369300e-022
  6.9578393e+002  9.5824400e-022
  6.9599237e+002  9.5247700e-022
  6.9620082e+002  9.4744000e-022
  6.9640926e+002  9.4131000e-022
  6.9661761e+002  9.3619800e-022
  6.9682595e+002  9.3092900e-022
  6.9703439e+002  9.2488400e-022
  6.9724274e+002  9.1939700e-022
  6.9745108e+002  9.1442800e-022
  6.9765933e+002  9.0924800e-022
  6.9786767e+002  9.0345100e-022
  6.9807591e+002  8.9888600e-022
  6.9828426e+002  8.9371500e-022
  6.9849250e+002  8.8859700e-022
  6.9870075e+002  8.8368300e-022
  6.9890889e+002  8.7918100e-022
  6.9911713e+002  8.7450800e-022
  6.9932538e+002  8.7006800e-022
  6.9953352e+002  8.6619500e-022
  6.9974167e+002  8.6160700e-022
  6.9994981e+002  8.5679200e-022
  7.0015795e+002  8.5160800e-022
  7.0036610e+002  8.4798500e-022
  7.0057424e+002  8.4459800e-022
  7.0078228e+002  8.4098500e-022
  7.0099043e+002  8.3650900e-022
  7.0119847e+002  8.3260600e-022
  7.0140652e+002  8.2859000e-022
  7.0161456e+002  8.2454700e-022
  7.0182260e+002  8.2166100e-022
  7.0203065e+002  8.1845000e-022
  7.0223869e+002  8.1506900e-022
  7.0244664e+002  8.1130000e-022
  7.0265458e+002  8.0862600e-022
  7.0286262e+002  8.0441100e-022
  7.0307057e+002  8.0146300e-022
  7.0327851e+002  7.9857800e-022
  7.0348636e+002  7.9619500e-022
  7.0369430e+002  7.9379500e-022
  7.0390224e+002  7.9061300e-022
  7.0411009e+002  7.8754500e-022
  7.0431793e+002  7.8481300e-022
  7.0452588e+002  7.8160800e-022
  7.0473372e+002  7.7925700e-022
  7.0494156e+002  7.7649900e-022
  7.0514941e+002  7.7364300e-022
  7.0535715e+002  7.7118400e-022
  7.0556500e+002  7.6865700e-022
  7.0577274e+002  7.6640800e-022
  7.0598059e+002  7.6351900e-022
  7.0618833e+002  7.6125600e-022
  7.0639607e+002  7.5918300e-022
  7.0660382e+002  7.5661000e-022
  7.0681156e+002  7.5376700e-022
  7.0701931e+002  7.5196100e-022
  7.0722705e+002  7.5030800e-022
  7.0743469e+002  7.4709000e-022
  7.0764244e+002  7.4541800e-022
  7.0785008e+002  7.4316500e-022
  7.0805773e+002  7.4174300e-022
  7.0826537e+002  7.3917700e-022
  7.0847301e+002  7.3695400e-022
  7.0868066e+002  7.3529700e-022
  7.0888830e+002  7.3302200e-022
  7.0909595e+002  7.3080500e-022
  7.0930349e+002  7.2848000e-022
  7.0951113e+002  7.2656000e-022
  7.0971868e+002  7.2518400e-022
  7.0992632e+002  7.2296300e-022
  7.1013387e+002  7.2141500e-022
  7.1034141e+002  7.1935100e-022
  7.1054895e+002  7.1721900e-022
  7.1075650e+002  7.1581300e-022
  7.1096404e+002  7.1420900e-022
  7.1117149e+002  7.1285000e-022
  7.1137903e+002  7.1102700e-022
  7.1158658e+002  7.0949800e-022
  7.1179402e+002  7.0874800e-022
  7.1200146e+002  7.0805400e-022
  7.1220901e+002  7.0668100e-022
  7.1241645e+002  7.0661300e-022
  7.1262390e+002  7.0712500e-022
  7.1283134e+002  7.0493700e-022
  7.1303878e+002  7.0457200e-022
  7.1324623e+002  7.0376000e-022
  7.1345357e+002  7.0342400e-022
  7.1366102e+002  7.0288300e-022
  7.1386846e+002  7.0308200e-022
  7.1407580e+002  7.0244300e-022
  7.1428315e+002  7.0228900e-022
  7.1449059e+002  7.0183600e-022
  7.1469794e+002  7.0158800e-022
  7.1490528e+002  7.0047000e-022
  7.1511263e+002  6.9942400e-022
  7.1531997e+002  6.9900300e-022
  7.1552731e+002  6.9772500e-022
  7.1573466e+002  6.9629000e-022
  7.1594200e+002  6.9419400e-022
  7.1614935e+002  6.9283100e-022
  7.1635659e+002  6.9026200e-022
  7.1656393e+002  6.8823700e-022
  7.1677118e+002  6.8580800e-022
  7.1697852e+002  6.8292900e-022
  7.1718577e+002  6.7985500e-022
  7.1739301e+002  6.7636300e-022
  7.1760026e+002  6.7210500e-022
  7.1780760e+002  6.6774600e-022
  7.1801484e+002  6.6386600e-022
  7.1822209e+002  6.5981700e-022
  7.1842933e+002  6.5584600e-022
  7.1863658e+002  6.5212500e-022
  7.1884372e+002  6.4755800e-022
  7.1905096e+002  6.4242900e-022
  7.1925821e+002  6.3753500e-022
  7.1946535e+002  6.3340800e-022
  7.1967260e+002  6.2832500e-022
  7.1987984e+002  6.2348300e-022
  7.2008699e+002  6.1957400e-022
  7.2029413e+002  6.1436100e-022
  7.2050137e+002  6.0910800e-022
  7.2070852e+002  6.0503900e-022
  7.2091566e+002  6.0054300e-022
  7.2112291e+002  5.9589700e-022
  7.2133005e+002  5.9158400e-022
  7.2153719e+002  5.8738800e-022
  7.2174434e+002  5.8360900e-022
  7.2195148e+002  5.7916500e-022
  7.2215863e+002  5.7630200e-022
  7.2236577e+002  5.7319500e-022
  7.2257282e+002  5.6976900e-022
  7.2277996e+002  5.6594400e-022
  7.2298710e+002  5.6253100e-022
  7.2319425e+002  5.6057400e-022
  7.2340129e+002  5.5749300e-022
  7.2360844e+002  5.5475800e-022
  7.2381558e+002  5.5155600e-022
  7.2402262e+002  5.4957400e-022
  7.2422977e+002  5.4705700e-022
  7.2443681e+002  5.4458200e-022
  7.2464396e+002  5.4194800e-022
  7.2485100e+002  5.3947700e-022
  7.2505805e+002  5.3751700e-022
  7.2526519e+002  5.3532000e-022
  7.2547223e+002  5.3227400e-022
  7.2567928e+002  5.3040900e-022
  7.2588632e+002  5.2735100e-022
  7.2609347e+002  5.2463900e-022
  7.2630051e+002  5.2168100e-022
  7.2650755e+002  5.1916100e-022
  7.2671460e+002  5.1648800e-022
  7.2692164e+002  5.1279700e-022
  7.2712869e+002  5.0948400e-022
  7.2733573e+002  5.0715300e-022
  7.2754278e+002  5.0365500e-022
  7.2774982e+002  4.9985700e-022
  7.2795686e+002  4.9716300e-022
  7.2816391e+002  4.9508000e-022
  7.2837095e+002  4.9169600e-022
  7.2857800e+002  4.8906800e-022
  7.2878504e+002  4.8691600e-022
  7.2899199e+002  4.8397900e-022
  7.2919903e+002  4.8163100e-022
  7.2940607e+002  4.7929300e-022
  7.2961312e+002  4.7707600e-022
  7.2982016e+002  4.7441300e-022
  7.3002711e+002  4.7168000e-022
  7.3023415e+002  4.6817600e-022
  7.3044119e+002  4.6559700e-022
  7.3064824e+002  4.6397300e-022
  7.3085518e+002  4.6211500e-022
  7.3106223e+002  4.6099900e-022
  7.3126927e+002  4.5980900e-022
  7.3147622e+002  4.5735400e-022
  7.3168326e+002  4.5518000e-022
  7.3189030e+002  4.5383300e-022
  7.3209725e+002  4.5224500e-022
  7.3230429e+002  4.5117900e-022
  7.3251134e+002  4.4984300e-022
  7.3271828e+002  4.4883500e-022
  7.3292532e+002  4.4746900e-022
  7.3313237e+002  4.4613200e-022
  7.3333931e+002  4.4463600e-022
  7.3354636e+002  4.4392200e-022
  7.3375340e+002  4.4351100e-022
  7.3396035e+002  4.4210200e-022
  7.3416739e+002  4.4172700e-022
  7.3437443e+002  4.4125800e-022
  7.3458138e+002  4.4101000e-022
  7.3478842e+002  4.4086000e-022
  7.3499547e+002  4.3944200e-022
  7.3520241e+002  4.3900500e-022
  7.3540946e+002  4.3783100e-022
  7.3561650e+002  4.3705200e-022
  7.3582354e+002  4.3646900e-022
  7.3603049e+002  4.3667700e-022
  7.3623753e+002  4.3541900e-022
  7.3644458e+002  4.3505700e-022
  7.3665162e+002  4.3481200e-022
  7.3685856e+002  4.3384400e-022
  7.3706561e+002  4.3372300e-022
  7.3727265e+002  4.3366100e-022
  7.3747970e+002  4.3252300e-022
  7.3768674e+002  4.3156200e-022
  7.3789379e+002  4.3120000e-022
  7.3810073e+002  4.3215800e-022
  7.3830777e+002  4.3055100e-022
  7.3851482e+002  4.2999700e-022
  7.3872186e+002  4.2981100e-022
  7.3892891e+002  4.3012100e-022
  7.3913595e+002  4.3003600e-022
  7.3934299e+002  4.3055100e-022
  7.3955004e+002  4.3095500e-022
  7.3975718e+002  4.3132400e-022
  7.3996423e+002  4.3057400e-022
  7.4017127e+002  4.3134000e-022
  7.4037832e+002  4.3127800e-022
  7.4058536e+002  4.3128100e-022
  7.4079240e+002  4.3205400e-022
  7.4099955e+002  4.3272600e-022
  7.4120659e+002  4.3274500e-022
  7.4141364e+002  4.3358600e-022
  7.4162078e+002  4.3441100e-022
  7.4182782e+002  4.3520700e-022
  7.4203497e+002  4.3611300e-022
  7.4224201e+002  4.3772400e-022
  7.4244916e+002  4.3819000e-022
  7.4265620e+002  4.3882900e-022
  7.4286335e+002  4.4013600e-022
  7.4307049e+002  4.4091600e-022
  7.4327753e+002  4.4264700e-022
  7.4348468e+002  4.4426700e-022
  7.4369182e+002  4.4493600e-022
  7.4389897e+002  4.4693800e-022
  7.4410611e+002  4.4889700e-022
  7.4431325e+002  4.5074200e-022
  7.4452040e+002  4.5207300e-022
  7.4472754e+002  4.5407800e-022
  7.4493469e+002  4.5454700e-022
  7.4514183e+002  4.5638300e-022
  7.4534897e+002  4.5697300e-022
  7.4555612e+002  4.5830600e-022
  7.4576336e+002  4.6026900e-022
  7.4597051e+002  4.6137400e-022
  7.4617765e+002  4.6141000e-022
  7.4638490e+002  4.6213400e-022
  7.4659204e+002  4.6226800e-022
  7.4679928e+002  4.6337600e-022
  7.4700653e+002  4.6342500e-022
  7.4721367e+002  4.6333400e-022
  7.4742092e+002  4.6305000e-022
  7.4762816e+002  4.6152400e-022
  7.4783540e+002  4.6077500e-022
  7.4804265e+002  4.6013900e-022
  7.4824989e+002  4.5838500e-022
  7.4845714e+002  4.5684600e-022
  7.4866438e+002  4.5500400e-022
  7.4887162e+002  4.5286800e-022
  7.4907897e+002  4.4980000e-022
  7.4928621e+002  4.4681700e-022
  7.4949346e+002  4.4390900e-022
  7.4970080e+002  4.4072300e-022
  7.4990804e+002  4.3647500e-022
  7.5011539e+002  4.3219400e-022
  7.5032273e+002  4.2801400e-022
  7.5053008e+002  4.2387400e-022
  7.5073742e+002  4.1901300e-022
  7.5094467e+002  4.1535400e-022
  7.5115211e+002  4.1054900e-022
  7.5135945e+002  4.0524400e-022
  7.5156680e+002  4.0119100e-022
  7.5177414e+002  3.9645700e-022
  7.5198149e+002  3.9102900e-022
  7.5218893e+002  3.8648100e-022
  7.5239627e+002  3.8180800e-022
  7.5260372e+002  3.7694700e-022
  7.5281116e+002  3.7223900e-022
  7.5301861e+002  3.6796500e-022
  7.5322595e+002  3.6345900e-022
  7.5343339e+002  3.6003900e-022
  7.5364084e+002  3.5566400e-022
  7.5384838e+002  3.5183600e-022
  7.5405583e+002  3.4767900e-022
  7.5426327e+002  3.4363600e-022
  7.5447081e+002  3.3964500e-022
  7.5467826e+002  3.3619300e-022
  7.5488580e+002  3.3303700e-022
  7.5509325e+002  3.2960300e-022
  7.5530079e+002  3.2640200e-022
  7.5550833e+002  3.2381400e-022
  7.5571588e+002  3.2136600e-022
  7.5592342e+002  3.1836300e-022
  7.5613097e+002  3.1583300e-022
  7.5633861e+002  3.1348900e-022
  7.5654615e+002  3.1009100e-022
  7.5675370e+002  3.0859300e-022
  7.5696134e+002  3.0575000e-022
  7.5716899e+002  3.0329000e-022
  7.5737663e+002  3.0159000e-022
  7.5758427e+002  2.9959900e-022
  7.5779192e+002  2.9671600e-022
  7.5799956e+002  2.9538200e-022
  7.5820721e+002  2.9341200e-022
  7.5841485e+002  2.9205300e-022
  7.5862259e+002  2.8965900e-022
  7.5883024e+002  2.8835900e-022
  7.5903798e+002  2.8715500e-022
  7.5924573e+002  2.8640600e-022
  7.5945347e+002  2.8362000e-022
  7.5966121e+002  2.8166100e-022
  7.5986896e+002  2.8010200e-022
  7.6007670e+002  2.7881600e-022
  7.6028455e+002  2.7753300e-022
  7.6049229e+002  2.7619900e-022
  7.6070013e+002  2.7541300e-022
  7.6090798e+002  2.7423900e-022
  7.6111572e+002  2.7360500e-022
  7.6132356e+002  2.7249800e-022
  7.6153151e+002  2.7150100e-022
  7.6173935e+002  2.7154200e-022
  7.6194720e+002  2.7083800e-022
  7.6215514e+002  2.6976900e-022
  7.6236298e+002  2.6869600e-022
  7.6257093e+002  2.6787700e-022
  7.6277887e+002  2.6665400e-022
  7.6298682e+002  2.6540100e-022
  7.6319476e+002  2.6361700e-022
  7.6340270e+002  2.6266800e-022
  7.6361075e+002  2.6169500e-022
  7.6381869e+002  2.6152300e-022
  7.6402674e+002  2.6126600e-022
  7.6423478e+002  2.6147000e-022
  7.6444282e+002  2.6229800e-022
  7.6465087e+002  2.6243800e-022
  7.6485891e+002  2.6209900e-022
  7.6506705e+002  2.6125700e-022
  7.6527510e+002  2.5985700e-022
  7.6548324e+002  2.5867900e-022
  7.6569139e+002  2.5750000e-022
  7.6589953e+002  2.5675300e-022
  7.6610767e+002  2.5548100e-022
  7.6631582e+002  2.5525600e-022
  7.6652396e+002  2.5430200e-022
  7.6673221e+002  2.5469400e-022
  7.6694045e+002  2.5460700e-022
  7.6714859e+002  2.5455500e-022
  7.6735684e+002  2.5486000e-022
  7.6756518e+002  2.5570900e-022
  7.6777342e+002  2.5617900e-022
  7.6798167e+002  2.5681900e-022
  7.6819001e+002  2.5741400e-022
  7.6839836e+002  2.5752300e-022
  7.6860670e+002  2.5749300e-022
  7.6881504e+002  2.5841500e-022
  7.6902339e+002  2.5817100e-022
  7.6923173e+002  2.5871900e-022
  7.6944017e+002  2.5977600e-022
  7.6964862e+002  2.6068500e-022
  7.6985696e+002  2.5996400e-022
  7.7006541e+002  2.6088300e-022
  7.7027395e+002  2.6104000e-022
  7.7048239e+002  2.6230700e-022
  7.7069094e+002  2.6309900e-022
  7.7089938e+002  2.6402600e-022
  7.7110792e+002  2.6533900e-022
  7.7131647e+002  2.6632900e-022
  7.7152501e+002  2.6756400e-022
  7.7173366e+002  2.6969400e-022
  7.7194220e+002  2.7092500e-022
  7.7215084e+002  2.7285900e-022
  7.7235949e+002  2.7482100e-022
  7.7256813e+002  2.7635600e-022
  7.7277677e+002  2.7814300e-022
  7.7298552e+002  2.8023500e-022
  7.7319416e+002  2.8168900e-022
  7.7340290e+002  2.8543100e-022
  7.7361165e+002  2.8710300e-022
  7.7382039e+002  2.8983900e-022
  7.7402914e+002  2.9160500e-022
  7.7423798e+002  2.9461800e-022
  7.7444672e+002  2.9588500e-022
  7.7465557e+002  2.9857100e-022
  7.7486441e+002  3.0137900e-022
  7.7507335e+002  3.0463200e-022
  7.7528220e+002  3.0728100e-022
  7.7549114e+002  3.1001800e-022
  7.7569998e+002  3.1255200e-022
  7.7590893e+002  3.1532100e-022
  7.7611797e+002  3.1833800e-022
  7.7632692e+002  3.2161700e-022
  7.7653586e+002  3.2305000e-022
  7.7674490e+002  3.2565200e-022
  7.7695395e+002  3.2726900e-022
  7.7716299e+002  3.3032400e-022
  7.7737213e+002  3.3202300e-022
  7.7758118e+002  3.3412600e-022
  7.7779032e+002  3.3586300e-022
  7.7799946e+002  3.3688700e-022
  7.7820861e+002  3.3732400e-022
  7.7841775e+002  3.3793400e-022
  7.7862699e+002  3.3852700e-022
  7.7883614e+002  3.3949200e-022
  7.7904538e+002  3.3924100e-022
  7.7925472e+002  3.4025500e-022
  7.7946397e+002  3.4000700e-022
  7.7967321e+002  3.3873900e-022
  7.7988256e+002  3.3754900e-022
  7.8004111e+002  3.3689700e-022
  7.8034093e+002  3.3420100e-022
  7.8064075e+002  3.3161500e-022
  7.8094047e+002  3.2800600e-022
  7.8124009e+002  3.2399700e-022
  7.8153971e+002  3.1920200e-022
  7.8183923e+002  3.1520500e-022
  7.8213865e+002  3.1102000e-022
  7.8243797e+002  3.0653100e-022
  7.8273718e+002  3.0128200e-022
  7.8303640e+002  2.9731400e-022
  7.8333552e+002  2.9092700e-022
  7.8363454e+002  2.8530400e-022
  7.8393346e+002  2.8117500e-022
  7.8423238e+002  2.7570300e-022
  7.8453120e+002  2.7098200e-022
  7.8482992e+002  2.6630200e-022
  7.8512854e+002  2.6218600e-022
  7.8542716e+002  2.5815500e-022
  7.8572558e+002  2.5369900e-022
  7.8602400e+002  2.4896300e-022
  7.8632242e+002  2.4521800e-022
  7.8662064e+002  2.4137800e-022
  7.8691886e+002  2.3778200e-022
  7.8721697e+002  2.3458000e-022
  7.8751509e+002  2.3127000e-022
  7.8781301e+002  2.2828900e-022
  7.8811093e+002  2.2551100e-022
  7.8840875e+002  2.2250500e-022
  7.8870657e+002  2.1934800e-022
  7.8900419e+002  2.1734000e-022
  7.8930181e+002  2.1533900e-022
  7.8959933e+002  2.1239800e-022
  7.8989685e+002  2.0928900e-022
  7.9019427e+002  2.0672700e-022
  7.9049149e+002  2.0433600e-022
  7.9078881e+002  2.0253300e-022
  7.9108593e+002  1.9978700e-022
  7.9138305e+002  1.9731400e-022
  7.9168007e+002  1.9520100e-022
  7.9197699e+002  1.9255100e-022
  7.9227391e+002  1.9032100e-022
  7.9257073e+002  1.8719900e-022
  7.9286745e+002  1.8455300e-022
  7.9316407e+002  1.8363900e-022
  7.9346069e+002  1.8076100e-022
  7.9375721e+002  1.7842800e-022
  7.9405363e+002  1.7631300e-022
  7.9435005e+002  1.7425700e-022
  7.9464637e+002  1.7319300e-022
  7.9494259e+002  1.7172600e-022
  7.9523871e+002  1.7002800e-022
  7.9553483e+002  1.6843600e-022
  7.9583085e+002  1.6682900e-022
  7.9612677e+002  1.6614000e-022
  7.9642269e+002  1.6474800e-022
  7.9671851e+002  1.6374100e-022
  7.9701423e+002  1.6358700e-022
  7.9730995e+002  1.6253400e-022
  7.9760547e+002  1.6174300e-022
  7.9790099e+002  1.6052500e-022
  7.9819651e+002  1.6012100e-022
  7.9849183e+002  1.5921100e-022
  7.9878715e+002  1.5787900e-022
  7.9908247e+002  1.5751600e-022
  7.9937759e+002  1.5703900e-022
  7.9967271e+002  1.5648200e-022
  7.9996773e+002  1.5552200e-022
  8.0026275e+002  1.5426600e-022
  8.0055767e+002  1.5384100e-022
  8.0085249e+002  1.5338300e-022
  8.0114721e+002  1.5249200e-022
  8.0144193e+002  1.5278800e-022
  8.0173655e+002  1.5261100e-022
  8.0203107e+002  1.5190000e-022
  8.0232559e+002  1.5131400e-022
  8.0262001e+002  1.5189900e-022
  8.0291433e+002  1.5188100e-022
  8.0320865e+002  1.5169900e-022
  8.0350288e+002  1.5131300e-022
  8.0379700e+002  1.5230600e-022
  8.0409112e+002  1.5213800e-022
  8.0438514e+002  1.5256000e-022
  8.0467906e+002  1.5289600e-022
  8.0497298e+002  1.5397900e-022
  8.0526680e+002  1.5437800e-022
  8.0556052e+002  1.5506800e-022
  8.0585424e+002  1.5680600e-022
  8.0614776e+002  1.5792400e-022
  8.0644138e+002  1.6029400e-022
  8.0673480e+002  1.6228800e-022
  8.0702822e+002  1.6379600e-022
  8.0732164e+002  1.6556100e-022
  8.0761486e+002  1.6850300e-022
  8.0790808e+002  1.7106700e-022
  8.0820121e+002  1.7365900e-022
  8.0849433e+002  1.7565300e-022
  8.0878735e+002  1.7899500e-022
  8.0908027e+002  1.8198800e-022
  8.0937319e+002  1.8358100e-022
  8.0966601e+002  1.8676400e-022
  8.0995873e+002  1.9011300e-022
  8.1025145e+002  1.9218100e-022
  8.1054407e+002  1.9507300e-022
  8.1083669e+002  1.9820600e-022
  8.1112911e+002  2.0169200e-022
  8.1142164e+002  2.0416400e-022
  8.1171396e+002  2.0654700e-022
  8.1200628e+002  2.0982900e-022
  8.1229850e+002  2.1257900e-022
  8.1259072e+002  2.1526700e-022
  8.1288284e+002  2.1736900e-022
  8.1317486e+002  2.1992200e-022
  8.1346688e+002  2.2261700e-022
  8.1375880e+002  2.2555900e-022
  8.1405062e+002  2.2759400e-022
  8.1434245e+002  2.2894500e-022
  8.1463417e+002  2.3143700e-022
  8.1492579e+002  2.3283200e-022
  8.1521741e+002  2.3422500e-022
  8.1550903e+002  2.3570400e-022
  8.1580045e+002  2.3716800e-022
  8.1609187e+002  2.3738800e-022
  8.1638329e+002  2.3774600e-022
  8.1667452e+002  2.3793400e-022
  8.1696584e+002  2.3752900e-022
  8.1725696e+002  2.3641900e-022
  8.1754808e+002  2.3523300e-022
  8.1783910e+002  2.3398100e-022
  8.1813012e+002  2.3176200e-022
  8.1842104e+002  2.3000700e-022
  8.1871186e+002  2.2854500e-022
  8.1900269e+002  2.2667800e-022
  8.1929341e+002  2.2383800e-022
  8.1958413e+002  2.2000700e-022
  8.1987475e+002  2.1723700e-022
  8.2016527e+002  2.1438400e-022
  8.2045579e+002  2.1057900e-022
  8.2074621e+002  2.0683100e-022
  8.2103664e+002  2.0184500e-022
  8.2132696e+002  1.9777100e-022
  8.2161718e+002  1.9387700e-022
  8.2190740e+002  1.8927000e-022
  8.2219752e+002  1.8471600e-022
  8.2248764e+002  1.8089900e-022
  8.2277767e+002  1.7703100e-022
  8.2306759e+002  1.7369700e-022
  8.2335751e+002  1.7020000e-022
  8.2364733e+002  1.6555000e-022
  8.2393715e+002  1.6019600e-022
  8.2422687e+002  1.5646800e-022
  8.2451650e+002  1.5211200e-022
  8.2480612e+002  1.4775900e-022
  8.2509574e+002  1.4362700e-022
  8.2538516e+002  1.3969900e-022
  8.2567458e+002  1.3555500e-022
  8.2596400e+002  1.3124100e-022
  8.2625333e+002  1.2763200e-022
  8.2654255e+002  1.2467000e-022
  8.2683177e+002  1.2229000e-022
  8.2712089e+002  1.1931400e-022
  8.2741001e+002  1.1725800e-022
  8.2769903e+002  1.1427200e-022
  8.2798796e+002  1.1206600e-022
  8.2827688e+002  1.1000700e-022
  8.2856580e+002  1.0725200e-022
  8.2885452e+002  1.0548700e-022
  8.2914334e+002  1.0264400e-022
  8.2943197e+002  1.0045100e-022
  8.2972059e+002  9.8100200e-023
  8.3000921e+002  9.6479800e-023
  8.3029773e+002  9.3997000e-023
  8.3058615e+002  9.2294500e-023
  8.3087458e+002  9.0721000e-023
  8.3116290e+002  8.9370200e-023
  8.3145122e+002  8.7975100e-023
  8.3173944e+002  8.7338000e-023
  8.3202766e+002  8.6335500e-023
  8.3231579e+002  8.4457800e-023
  8.3260381e+002  8.3432400e-023
  8.3289183e+002  8.3030800e-023
  8.3317985e+002  8.1889300e-023
  8.3346778e+002  8.1146600e-023
  8.3375560e+002  8.0495800e-023
  8.3404342e+002  7.9844400e-023
  8.3433114e+002  7.9307800e-023
  8.3461876e+002  7.9466900e-023
  8.3490649e+002  7.9589500e-023
  8.3519401e+002  7.8984300e-023
  8.3548153e+002  7.8874100e-023
  8.3576905e+002  7.8054800e-023
  8.3605648e+002  7.7287300e-023
  8.3634380e+002  7.5709900e-023
  8.3663112e+002  7.5421400e-023
  8.3691834e+002  7.6495700e-023
  8.3720556e+002  7.6443500e-023
  8.3749269e+002  7.5257100e-023
  8.3777981e+002  7.5307300e-023
  8.3806693e+002  7.5352900e-023
  8.3835385e+002  7.4981900e-023
  8.3864078e+002  7.5791100e-023
  8.3892770e+002  7.4781400e-023
  8.3921452e+002  7.4747800e-023
  8.3950134e+002  7.4939500e-023
  8.3978807e+002  7.5240100e-023
  8.4007469e+002  7.6077100e-023
  8.4036141e+002  7.6402400e-023
  8.4064793e+002  7.7351500e-023
  8.4093446e+002  7.7727500e-023
  8.4122098e+002  7.8835000e-023
  8.4150740e+002  7.8694800e-023
  8.4179372e+002  7.7725200e-023
  8.4208005e+002  7.8549700e-023
  8.4236637e+002  7.9643300e-023
  8.4265249e+002  8.0454800e-023
  8.4293871e+002  8.0947700e-023
  8.4322484e+002  8.1220900e-023
  8.4351086e+002  8.2183400e-023
  8.4379688e+002  8.3089800e-023
  8.4408290e+002  8.4791400e-023
  8.4436883e+002  8.5819400e-023
  8.4465465e+002  8.5913600e-023
  8.4494047e+002  8.7765800e-023
  8.4522619e+002  8.9490900e-023
  8.4551192e+002  9.0056900e-023
  8.4579764e+002  9.1384500e-023
  8.4608326e+002  9.3009400e-023
  8.4636879e+002  9.5271200e-023
  8.4665431e+002  9.5849600e-023
  8.4693983e+002  9.7708000e-023
  8.4722525e+002  1.0017700e-022
  8.4751058e+002  1.0167800e-022
  8.4779590e+002  1.0429500e-022
  8.4808122e+002  1.0633500e-022
  8.4836645e+002  1.0880600e-022
  8.4865157e+002  1.1127700e-022
  8.4893679e+002  1.1499500e-022
  8.4922181e+002  1.1793900e-022
  8.4950684e+002  1.2076700e-022
  8.4979186e+002  1.2472300e-022
  8.5007678e+002  1.2790000e-022
  8.5036171e+002  1.3159900e-022
  8.5064653e+002  1.3506400e-022
  8.5093135e+002  1.3898800e-022
  8.5121607e+002  1.4167300e-022
  8.5150080e+002  1.4506500e-022
  8.5178542e+002  1.4866500e-022
  8.5207004e+002  1.5183700e-022
  8.5235467e+002  1.5451900e-022
  8.5263919e+002  1.5723000e-022
  8.5292361e+002  1.5797700e-022
  8.5320804e+002  1.5873400e-022
  8.5349246e+002  1.5944100e-022
  8.5377678e+002  1.5928900e-022
  8.5406110e+002  1.5790100e-022
  8.5434533e+002  1.5737200e-022
  8.5462955e+002  1.5639400e-022
  8.5491367e+002  1.5426600e-022
  8.5519780e+002  1.5368900e-022
  8.5548182e+002  1.5250000e-022
  8.5576584e+002  1.4999500e-022
  8.5604987e+002  1.4733600e-022
  8.5633379e+002  1.4536500e-022
  8.5661761e+002  1.4343200e-022
  8.5690154e+002  1.4173300e-022
  8.5718526e+002  1.3947300e-022
  8.5746908e+002  1.3805500e-022
  8.5775281e+002  1.3625200e-022
  8.5803643e+002  1.3413600e-022
  8.5832005e+002  1.3096400e-022
  8.5860358e+002  1.2934900e-022
  8.5888720e+002  1.2730000e-022
  8.5917062e+002  1.2590500e-022
  8.5945405e+002  1.2323400e-022
  8.5973747e+002  1.2014500e-022
  8.6002089e+002  1.1790400e-022
  8.6030422e+002  1.1517400e-022
  8.6058744e+002  1.1207100e-022
  8.6087066e+002  1.0951700e-022
  8.6115389e+002  1.0652000e-022
  8.6143701e+002  1.0390300e-022
  8.6172013e+002  1.0071200e-022
  8.6200316e+002  9.7457900e-023
  8.6228618e+002  9.3946200e-023
  8.6256920e+002  9.1067900e-023
  8.6285213e+002  8.7856800e-023
  8.6313505e+002  8.4542300e-023
  8.6341787e+002  8.2192200e-023
  8.6370070e+002  8.1329800e-023
  8.6398342e+002  7.9809500e-023
  8.6426624e+002  7.7502800e-023
  8.6454887e+002  7.4833900e-023
  8.6483149e+002  7.2519700e-023
  8.6511411e+002  7.0485200e-023
  8.6539674e+002  6.9149100e-023
  8.6567926e+002  6.6833600e-023
  8.6596168e+002  6.5566300e-023
  8.6624421e+002  6.4579400e-023
  8.6652663e+002  6.2781900e-023
  8.6680896e+002  6.0348400e-023
  8.6709128e+002  5.8058600e-023
  8.6737360e+002  5.6687700e-023
  8.6765583e+002  5.6506700e-023
  8.6793805e+002  5.5504800e-023
  8.6822017e+002  5.4299400e-023
  8.6850230e+002  5.2886700e-023
  8.6878442e+002  5.1825500e-023
  8.6906644e+002  5.0766800e-023
  8.6934847e+002  4.9660300e-023
  8.6963049e+002  4.9023800e-023
  8.6991242e+002  4.7456900e-023
  8.7019434e+002  4.6340600e-023
  8.7047616e+002  4.5448900e-023
  8.7075799e+002  4.5154400e-023
  8.7103981e+002  4.4041000e-023
  8.7132153e+002  4.3154500e-023
  8.7160326e+002  4.3768800e-023
  8.7188488e+002  4.3228500e-023
  8.7216651e+002  4.1651200e-023
  8.7244813e+002  4.2055800e-023
  8.7272965e+002  4.1093300e-023
  8.7301118e+002  4.0689400e-023
  8.7329270e+002  4.0060100e-023
  8.7357412e+002  3.9988700e-023
  8.7385555e+002  3.8749100e-023
  8.7413697e+002  3.8472300e-023
  8.7441830e+002  3.8109400e-023
  8.7469962e+002  3.7929800e-023
  8.7498084e+002  3.7920300e-023
  8.7526207e+002  3.7789300e-023
  8.7554329e+002  3.7582200e-023
  8.7582442e+002  3.7194600e-023
  8.7610554e+002  3.7189000e-023
  8.7638666e+002  3.7967600e-023
  8.7666769e+002  3.7703900e-023
  8.7694871e+002  3.7586500e-023
  8.7722973e+002  3.8684200e-023
  8.7751066e+002  3.7995000e-023
  8.7779158e+002  3.8002800e-023
  8.7807241e+002  3.8469100e-023
  8.7835333e+002  3.7805600e-023
  8.7863405e+002  3.8288100e-023
  8.7891488e+002  3.8390200e-023
  8.7919560e+002  3.9594500e-023
  8.7947633e+002  3.9563900e-023
  8.7975695e+002  3.8533600e-023
  8.8003767e+002  3.9063400e-023
  8.8031820e+002  4.0546200e-023
  8.8059882e+002  4.1744400e-023
  8.8087935e+002  4.2219500e-023
  8.8115987e+002  4.3674600e-023
  8.8144029e+002  4.4518700e-023
  8.8172072e+002  4.5176300e-023
  8.8200114e+002  4.5995000e-023
  8.8228157e+002  4.7249200e-023
  8.8256189e+002  4.7084600e-023
  8.8284222e+002  4.6462500e-023
  8.8312244e+002  4.6991000e-023
  8.8340266e+002  4.7906200e-023
  8.8368289e+002  4.8445800e-023
  8.8396311e+002  4.9107300e-023
  8.8424324e+002  4.9645600e-023
  8.8452336e+002  4.9977200e-023
  8.8480348e+002  4.9734000e-023
  8.8508351e+002  5.0459400e-023
  8.8536353e+002  5.0784800e-023
  8.8564356e+002  5.1315600e-023
  8.8592348e+002  5.2395400e-023
  8.8620341e+002  5.2697000e-023
  8.8648333e+002  5.1698300e-023
  8.8676315e+002  5.1861300e-023
  8.8704298e+002  5.2244800e-023
  8.8732280e+002  5.2537200e-023
  8.8760263e+002  5.3476900e-023
  8.8788235e+002  5.4076400e-023
  8.8816208e+002  5.4105500e-023
  8.8844170e+002  5.4023900e-023
  8.8872142e+002  5.4083000e-023
  8.8900105e+002  5.4926100e-023
  8.8928057e+002  5.5530600e-023
  8.8956020e+002  5.6183900e-023
  8.8983972e+002  5.5827300e-023
  8.9011925e+002  5.4877200e-023
  8.9039867e+002  5.4920900e-023
  8.9067819e+002  5.4330400e-023
  8.9095762e+002  5.2249300e-023
  8.9123694e+002  5.1151900e-023
  8.9151637e+002  5.0373600e-023
  8.9179569e+002  5.0677800e-023
  8.9207502e+002  5.1363200e-023
  8.9235424e+002  5.1122900e-023
  8.9263356e+002  5.1979000e-023
  8.9291279e+002  5.2668600e-023
  8.9319191e+002  5.3459900e-023
  8.9347114e+002  5.4501600e-023
  8.9375026e+002  5.5225100e-023
  8.9402939e+002  5.6203800e-023
  8.9430851e+002  5.8256200e-023
  8.9458754e+002  6.0281900e-023
  8.9486656e+002  6.2917900e-023
  8.9514558e+002  6.4934100e-023
  8.9542451e+002  6.6836200e-023
  8.9570353e+002  6.7730900e-023
  8.9598246e+002  6.8815900e-023
  8.9626138e+002  6.9698800e-023
  8.9654021e+002  6.9587300e-023
  8.9681903e+002  7.0188200e-023
  8.9709786e+002  7.0788700e-023
  8.9737668e+002  7.0000700e-023
  8.9765550e+002  6.9315700e-023
  8.9793423e+002  6.9491400e-023
  8.9821295e+002  6.9614000e-023
  8.9849168e+002  6.8691700e-023
  8.9877030e+002  6.8167100e-023
  8.9904893e+002  6.8253200e-023
  8.9932755e+002  6.7084300e-023
  8.9960618e+002  6.6228500e-023
  8.9988480e+002  6.5843100e-023
  9.0016333e+002  6.5666700e-023
  9.0044185e+002  6.4349500e-023
  9.0072037e+002  6.3095300e-023
  9.0099880e+002  6.2903900e-023
  9.0127722e+002  6.1629700e-023
  9.0155565e+002  5.9603100e-023
  9.0183407e+002  5.8893300e-023
  9.0211250e+002  5.7812500e-023
  9.0239082e+002  5.6347900e-023
  9.0266915e+002  5.4843300e-023
  9.0294747e+002  5.3563600e-023
  9.0322580e+002  5.2679000e-023
  9.0350402e+002  5.0891400e-023
  9.0378235e+002  5.0315000e-023
  9.0406057e+002  4.9887500e-023
  9.0433869e+002  4.9925000e-023
  9.0461692e+002  4.9089100e-023
  9.0489504e+002  4.7962600e-023
  9.0517317e+002  4.6668900e-023
  9.0545129e+002  4.4780200e-023
  9.0572942e+002  4.2803100e-023
  9.0600744e+002  4.1748000e-023
  9.0628547e+002  4.0418100e-023
  9.0656349e+002  3.9173600e-023
  9.0684152e+002  3.7482100e-023
  9.0711954e+002  3.6730000e-023
  9.0739747e+002  3.5044400e-023
  9.0767539e+002  3.3108000e-023
  9.0795332e+002  3.2378800e-023
  9.0823124e+002  3.1793300e-023
  9.0850916e+002  3.1025100e-023
  9.0878699e+002  2.9992300e-023
  9.0906481e+002  2.9753800e-023
  9.0934264e+002  2.8609600e-023
  9.0962046e+002  2.8575400e-023
  9.0989829e+002  2.7399700e-023
  9.1017601e+002  2.6348100e-023
  9.1045374e+002  2.5212800e-023
  9.1073146e+002  2.5699200e-023
  9.1100919e+002  2.4778600e-023
  9.1128691e+002  2.4169900e-023
  9.1156454e+002  2.4099300e-023
  9.1184216e+002  2.3313100e-023
  9.1211979e+002  2.2639800e-023
  9.1239741e+002  2.1663900e-023
  9.1267504e+002  2.1016000e-023
  9.1295256e+002  2.0081700e-023
  9.1323009e+002  1.9707400e-023
  9.1350771e+002  2.0207400e-023
  9.1378524e+002  2.0301800e-023
  9.1406266e+002  1.9992200e-023
  9.1434019e+002  1.9988200e-023
  9.1461761e+002  1.9814000e-023
  9.1489514e+002  1.8521600e-023
  9.1517256e+002  1.8931800e-023
  9.1544998e+002  1.9689000e-023
  9.1572731e+002  1.9173100e-023
  9.1600473e+002  1.8957100e-023
  9.1628206e+002  1.8874200e-023
  9.1655948e+002  1.8586700e-023
  9.1683681e+002  1.9086300e-023
  9.1711413e+002  1.8674200e-023
  9.1739136e+002  1.8111500e-023
  9.1766868e+002  1.8174300e-023
  9.1794591e+002  1.8376900e-023
  9.1822323e+002  1.7442000e-023
  9.1850046e+002  1.6951300e-023
  9.1877768e+002  1.7146000e-023
  9.1905481e+002  1.6481800e-023
  9.1933203e+002  1.6237000e-023
  9.1960926e+002  1.5680200e-023
  9.1988638e+002  1.5358300e-023
  9.2016351e+002  1.6080400e-023
  9.2044063e+002  1.6270100e-023
  9.2071776e+002  1.5552300e-023
  9.2099488e+002  1.5465400e-023
  9.2127201e+002  1.5289000e-023
  9.2154903e+002  1.4869600e-023
  9.2182606e+002  1.5262700e-023
  9.2210318e+002  1.5175500e-023
  9.2238021e+002  1.4098600e-023
  9.2265723e+002  1.4952900e-023
  9.2293416e+002  1.5169900e-023
  9.2321118e+002  1.4145600e-023
  9.2348821e+002  1.3625400e-023
  9.2376513e+002  1.4191100e-023
  9.2404206e+002  1.4398500e-023
  9.2431908e+002  1.4242700e-023
  9.2459601e+002  1.4857400e-023
  9.2487283e+002  1.4401800e-023
  9.2514976e+002  1.4999300e-023
  9.2542668e+002  1.5694100e-023
  9.2570351e+002  1.6182300e-023
  9.2598043e+002  1.5687800e-023
  9.2625726e+002  1.4946800e-023
  9.2653408e+002  1.4991800e-023
  9.2681091e+002  1.4754500e-023
  9.2708773e+002  1.4626300e-023
  9.2736456e+002  1.5213000e-023
  9.2764138e+002  1.4565800e-023
  9.2791821e+002  1.5390600e-023
  9.2819493e+002  1.5744600e-023
  9.2847166e+002  1.6016500e-023
  9.2874848e+002  1.5687300e-023
  9.2902521e+002  1.5334800e-023
  9.2930193e+002  1.5276600e-023
  9.2957866e+002  1.5437100e-023
  9.2985538e+002  1.6117100e-023
  9.3013211e+002  1.6046800e-023
  9.3040873e+002  1.5433600e-023
  9.3068546e+002  1.5776200e-023
  9.3096208e+002  1.5481300e-023
  9.3123881e+002  1.5914800e-023
  9.3151543e+002  1.6778200e-023
  9.3179206e+002  1.6029100e-023
  9.3206878e+002  1.4668500e-023
  9.3234541e+002  1.4978400e-023
  9.3262203e+002  1.5533300e-023
  9.3289856e+002  1.5391700e-023
  9.3317518e+002  1.5316600e-023
  9.3345181e+002  1.4826000e-023
  9.3372833e+002  1.4599700e-023
  9.3400496e+002  1.4538000e-023
  9.3428148e+002  1.4277800e-023
  9.3455811e+002  1.5949100e-023
  9.3483463e+002  1.5915200e-023
  9.3511116e+002  1.6080700e-023
  9.3538778e+002  1.6658500e-023
  9.3566431e+002  1.6746100e-023
  9.3594083e+002  1.7274100e-023
  9.3621736e+002  1.8027100e-023
  9.3649378e+002  1.9095000e-023
  9.3677031e+002  2.0256500e-023
  9.3704683e+002  2.0521800e-023
  9.3732336e+002  2.1084800e-023
  9.3759978e+002  2.2218700e-023
  9.3787631e+002  2.4405600e-023
  9.3815273e+002  2.5465700e-023
  9.3842926e+002  2.7268500e-023
  9.3870568e+002  2.8149900e-023
  9.3898211e+002  2.9321900e-023
  9.3925863e+002  2.9786000e-023
  9.3953506e+002  3.0285300e-023
  9.3981148e+002  3.2039400e-023
  9.4008791e+002  3.3072800e-023
  9.4036433e+002  3.4175500e-023
  9.4064076e+002  3.5424200e-023
  9.4091718e+002  3.6842500e-023
  9.4119361e+002  3.7881500e-023
  9.4147003e+002  3.8659800e-023
  9.4174646e+002  4.0130900e-023
  9.4202288e+002  4.1259000e-023
  9.4229921e+002  4.2241600e-023
  9.4257563e+002  4.2189100e-023
  9.4285206e+002  4.3439800e-023
  9.4312838e+002  4.4796100e-023
  9.4340481e+002  4.7156000e-023
  9.4368123e+002  4.7380000e-023
  9.4395756e+002  4.7396600e-023
  9.4423399e+002  4.6491800e-023
  9.4451031e+002  4.5917700e-023
  9.4478674e+002  4.5921900e-023
  9.4506306e+002  4.6008000e-023
  9.4533939e+002  4.6114300e-023
  9.4561581e+002  4.5384000e-023
  9.4589214e+002  4.2963800e-023
  9.4616846e+002  4.2495000e-023
  9.4644489e+002  4.2026800e-023
  9.4672121e+002  4.0777400e-023
  9.4699754e+002  3.8148600e-023
  9.4727396e+002  3.6665100e-023
  9.4755029e+002  3.6126800e-023
  9.4782661e+002  3.3936200e-023
  9.4810294e+002  3.2926800e-023
  9.4837936e+002  3.1747300e-023
  9.4865569e+002  2.9279600e-023
  9.4893201e+002  2.7654000e-023
  9.4920834e+002  2.7587800e-023
  9.4948466e+002  2.6206300e-023
  9.4976109e+002  2.4687200e-023
  9.5003741e+002  2.4403400e-023
  9.5031374e+002  2.4230700e-023
  9.5059006e+002  2.3031300e-023
  9.5086639e+002  2.1738400e-023
  9.5114271e+002  2.1968300e-023
  9.5141914e+002  2.0327200e-023
  9.5169546e+002  1.9970100e-023
  9.5197179e+002  1.9951600e-023
  9.5224811e+002  2.0316600e-023
  9.5252454e+002  1.9398400e-023
  9.5280086e+002  1.7734200e-023
  9.5307719e+002  1.6217900e-023
  9.5335351e+002  1.5410400e-023
  9.5362994e+002  1.4291700e-023
  9.5390626e+002  1.3481400e-023
  9.5418259e+002  1.2977200e-023
  9.5445901e+002  1.3701400e-023
  9.5473534e+002  1.4389800e-023
  9.5501166e+002  1.4333400e-023
  9.5528809e+002  1.4169400e-023
  9.5556441e+002  1.3180300e-023
  9.5584084e+002  1.2623900e-023
  9.5611716e+002  1.3025400e-023
  9.5639359e+002  1.4234500e-023
  9.5666991e+002  1.3746400e-023
  9.5694634e+002  1.2065600e-023
  9.5722266e+002  1.1181500e-023
  9.5749909e+002  1.1660200e-023
  9.5777551e+002  1.2164600e-023
  9.5805184e+002  1.2062000e-023
  9.5832826e+002  1.1071800e-023
  9.5860469e+002  1.1134900e-023
  9.5888111e+002  1.1362500e-023
  9.5915754e+002  1.0796500e-023
  9.5943396e+002  1.0200300e-023
  9.5971039e+002  9.7031800e-024
  9.5998681e+002  9.7121700e-024
  9.6026324e+002  9.1212300e-024
  9.6053966e+002  9.0887900e-024
  9.6081609e+002  9.1599700e-024
  9.6109251e+002  8.4889800e-024
  9.6136904e+002  7.9846400e-024
  9.6164547e+002  7.1745000e-024
  9.6192189e+002  7.7904200e-024
  9.6219842e+002  8.6324400e-024
  9.6247484e+002  7.5789200e-024
  9.6275137e+002  7.5322300e-024
  9.6302789e+002  6.6925500e-024
  9.6330432e+002  6.4095200e-024
  9.6358084e+002  7.2668300e-024
  9.6385737e+002  6.7415900e-024
  9.6413389e+002  6.4201200e-024
  9.6441042e+002  6.3188200e-024
  9.6468694e+002  6.9798900e-024
  9.6496347e+002  7.1334900e-024
  9.6523999e+002  5.8581300e-024
  9.6551652e+002  6.5134600e-024
  9.6579314e+002  7.2699600e-024
  9.6606967e+002  6.7541400e-024
  9.6634629e+002  6.2699100e-024
  9.6662282e+002  6.9942000e-024
  9.6689944e+002  6.1752300e-024
  9.6717607e+002  6.0581500e-024
  9.6745269e+002  5.1218400e-024
  9.6772932e+002  4.5772300e-024
  9.6800594e+002  4.0492400e-024
  9.6828257e+002  4.7417800e-024
  9.6855919e+002  5.3408700e-024
  9.6883582e+002  4.4562000e-024
  9.6911244e+002  5.1619100e-024
  9.6938917e+002  5.2947700e-024
  9.6966579e+002  4.8857900e-024
  9.6994252e+002  4.2040800e-024
  9.7021924e+002  4.1722300e-024
  9.7049597e+002  3.4060700e-024
  9.7077269e+002  3.2525700e-024
  9.7104942e+002  3.5396200e-024
  9.7132614e+002  3.1002900e-024
  9.7160287e+002  3.8012000e-024
  9.7187969e+002  4.0910100e-024
  9.7215642e+002  2.4678300e-024
  9.7243324e+002  2.4365000e-024
  9.7270996e+002  2.6393900e-024
  9.7298679e+002  2.9138800e-024
  9.7326361e+002  2.7365500e-024
  9.7354044e+002  2.2695100e-024
  9.7381726e+002  2.1534000e-024
  9.7409419e+002  2.4085800e-024
  9.7437101e+002  3.1274000e-024
  9.7464794e+002  3.0683500e-024
  9.7492476e+002  1.9351300e-024
  9.7520169e+002  1.4189300e-024
  9.7547861e+002  9.0268500e-025
  9.7575554e+002  1.4898100e-024
  9.7603246e+002  2.1453500e-024
  9.7630939e+002  1.8908000e-024
  9.7658641e+002  2.6663700e-024
  9.7686334e+002  2.3087700e-024
  9.7714036e+002  2.5819400e-024
  9.7741739e+002  2.3550400e-024
  9.7769441e+002  2.9462100e-024
  9.7797144e+002  3.5076300e-024
  9.7824846e+002  3.6386300e-024
  9.7852549e+002  3.5282400e-024
  9.7880261e+002  3.8628800e-024
  9.7907964e+002  3.0148600e-024
  9.7935676e+002  2.6613500e-024
  9.7963389e+002  3.7579000e-024
  9.7991101e+002  4.6010600e-024
  9.8018814e+002  4.5574100e-024
  9.8046536e+002  4.3730300e-024
  9.8074249e+002  4.4623700e-024
  9.8101971e+002  4.0220500e-024
  9.8129694e+002  3.6985900e-024
  9.8157416e+002  3.8580200e-024
  9.8185139e+002  3.8324300e-024
  9.8212861e+002  3.2653900e-024
  9.8240594e+002  3.2821500e-024
  9.8268316e+002  2.9589900e-024
  9.8296049e+002  2.7478300e-024
  9.8323781e+002  2.4407600e-024
  9.8351513e+002  2.2537400e-024
  9.8379246e+002  2.2806000e-024
  9.8406988e+002  3.0795000e-024
  9.8434721e+002  4.3673600e-024
  9.8462463e+002  4.3659200e-024
  9.8490206e+002  3.9662400e-024
  9.8517948e+002  3.7800700e-024
  9.8545701e+002  4.0659400e-024
  9.8573443e+002  5.4922800e-024
  9.8601196e+002  5.9732800e-024
  9.8628948e+002  5.4238800e-024
  9.8656701e+002  7.0571900e-024
  9.8684453e+002  6.9012800e-024
  9.8712206e+002  7.6932900e-024
  9.8739968e+002  8.6145100e-024
  9.8767731e+002  9.2219500e-024
  9.8795483e+002  9.4827800e-024
  9.8823256e+002  1.1534900e-023
  9.8851018e+002  1.3646400e-023
  9.8878780e+002  1.3596200e-023
  9.8906553e+002  1.3874700e-023
  9.8934325e+002  1.4249400e-023
  9.8962098e+002  1.5517400e-023
  9.8989870e+002  1.7957800e-023
  9.9017653e+002  2.1344600e-023
  9.9045435e+002  2.5930400e-023
  9.9073208e+002  3.3272400e-023
  9.9101000e+002  4.2066900e-023
  9.9128783e+002  4.7945300e-023
  9.9156565e+002  4.4834300e-023
  9.9184358e+002  3.6257900e-023
  9.9212150e+002  3.0585400e-023
  9.9239942e+002  2.9440400e-023
  9.9267735e+002  2.9316700e-023
  9.9295537e+002  2.8861600e-023
  9.9323340e+002  2.7948300e-023
  9.9351142e+002  2.8676900e-023
  9.9378945e+002  2.7302300e-023
  9.9406747e+002  2.6352900e-023
  9.9434560e+002  2.7189000e-023
  9.9462372e+002  2.7392000e-023
  9.9490185e+002  2.5760500e-023
  9.9517997e+002  2.2402400e-023
  9.9545820e+002  1.9901100e-023
  9.9573642e+002  2.0201800e-023
  9.9601464e+002  1.9373700e-023
  9.9629287e+002  1.6412200e-023
  9.9657109e+002  1.3440300e-023
  9.9684942e+002  1.2030700e-023
  9.9712774e+002  1.2490700e-023
  9.9740607e+002  1.3333000e-023
  9.9768439e+002  1.2065200e-023
  9.9796282e+002  9.8780900e-024
  9.9824124e+002  9.5025700e-024
  9.9851966e+002  8.6923000e-024
  9.9879809e+002  7.8599000e-024
  9.9907661e+002  9.1745400e-024
  9.9935514e+002  9.7069900e-024
  9.9963366e+002  7.1456100e-024
  9.9991219e+002  5.6460400e-024
  1.0001908e+003  5.7644900e-024
  1.0004693e+003  5.4562600e-024
  1.0007480e+003  5.1291800e-024
  1.0010267e+003  6.1051700e-024
  1.0013053e+003  6.4314600e-024
  1.0015840e+003  5.5711500e-024
  1.0018628e+003  4.3713000e-024
  1.0021416e+003  3.5881300e-024
  1.0024203e+003  3.5255600e-024
  1.0026991e+003  3.7895600e-024
  1.0029780e+003  4.2204500e-024
  1.0032569e+003  4.6260700e-024
  1.0035357e+003  4.1185300e-024
  1.0038146e+003  3.4031400e-024
  1.0040937e+003  3.1625500e-024
  1.0043726e+003  2.5846200e-024
  1.0046516e+003  2.7585400e-024
  1.0049306e+003  2.5506100e-024
  1.0052096e+003  2.1602300e-024
  1.0054888e+003  2.2611600e-024
  1.0057678e+003  2.7581200e-024
  1.0060470e+003  3.1915800e-024
  1.0063261e+003  1.9927700e-024
  1.0066054e+003  1.5089800e-024
  1.0068846e+003  2.6364300e-024
  1.0071638e+003  2.5932800e-024
  1.0074430e+003  1.9061200e-024
  1.0077224e+003  1.5087200e-024
  1.0080017e+003  1.3329300e-024
  1.0082811e+003  1.4657400e-024
  1.0085604e+003  1.7213100e-024
  1.0088399e+003  2.2623500e-024
  1.0091194e+003  2.5933400e-024
  1.0093988e+003  2.2561100e-024
  1.0096783e+003  2.9931900e-024
  1.0099579e+003  2.5641200e-024
  1.0102375e+003  1.9568800e-024
  1.0105171e+003  2.3190500e-024
  1.0107967e+003  2.8674200e-024
  1.0110764e+003  2.2777600e-024
  1.0113561e+003  2.2832900e-024
  1.0116358e+003  3.3055600e-024
  1.0119155e+003  3.4251500e-024
  1.0121954e+003  3.2423900e-024
  1.0124752e+003  2.4729100e-024
  1.0127550e+003  1.9489200e-024
  1.0130348e+003  2.6291800e-024
  1.0133148e+003  2.7489300e-024
  1.0135947e+003  2.1010500e-024
  1.0138747e+003  2.3055900e-024
  1.0141547e+003  2.6981300e-024
  1.0144347e+003  1.8018000e-024
  1.0147148e+003  9.8411500e-025
  1.0149949e+003  1.8282200e-024
  1.0152750e+003  2.5633600e-024
  1.0155552e+003  1.6521900e-024
  1.0158355e+003  1.3750600e-024
  1.0161157e+003  1.4803900e-024
  1.0163959e+003  1.7738200e-024
  1.0166762e+003  1.8137200e-024
  1.0169566e+003  1.8335800e-024
  1.0172369e+003  7.8543900e-025
  1.0175173e+003  8.9837100e-025
  1.0177977e+003  1.1240100e-024
  1.0180783e+003  2.1924900e-024
  1.0183587e+003  2.0227200e-024
  1.0186393e+003  1.6823800e-024
  1.0189198e+003  9.2619800e-025
  1.0192005e+003  7.8381500e-025
  1.0194811e+003  5.4320300e-025
  1.0197618e+003  1.2491500e-024
  1.0200424e+003  1.9119400e-024
  1.0203232e+003  1.7388800e-024
  1.0206040e+003  1.0826300e-024
  1.0208848e+003  9.2608700e-025
  1.0211656e+003  3.8683600e-025
  1.0214465e+003 -1.7111800e-026
  1.0217275e+003  6.2624100e-026
  1.0220084e+003  6.4551700e-026
  1.0222894e+003  8.8054000e-026
  1.0225704e+003  5.6720300e-025
  1.0228516e+003 -5.7280400e-025
  1.0231326e+003 -6.2983400e-026
  1.0234138e+003  5.8795800e-025
  1.0236949e+003  9.9406600e-025
  1.0239762e+003  5.1227500e-025
  1.0242574e+003  3.9643100e-025
  1.0245387e+003  6.9046400e-025
  1.0248200e+003  2.2893000e-025
  1.0251014e+003  4.7542000e-025
  1.0253828e+003  6.3206400e-025
  1.0256642e+003  6.4726100e-026
  1.0259457e+003  3.6811800e-025
  1.0262272e+003 -1.0602100e-025
  1.0265088e+003 -3.0584200e-025
  1.0267904e+003  3.7891700e-026
  1.0270720e+003  5.3344200e-025
  1.0273536e+003  2.1409000e-025
  1.0276354e+003  6.5686900e-025
  1.0279171e+003  7.9237300e-025
  1.0281989e+003  2.2260500e-024
  1.0284807e+003  2.0603900e-024
  1.0287626e+003  1.8861700e-024
  1.0290445e+003  1.2569200e-024
  1.0293264e+003  4.4874400e-025
  1.0296084e+003  5.3955200e-025
  1.0298905e+003  1.2710200e-024
  1.0301725e+003  3.4433100e-025
  1.0304546e+003  6.2679600e-026
  1.0307367e+003  1.4705200e-025
  1.0310189e+003  7.9948100e-025
  1.0313012e+003  6.8646700e-025
  1.0315834e+003  1.1433300e-024
  1.0318657e+003  1.1771500e-024
  1.0321480e+003  1.1906600e-024
  1.0324305e+003  4.9491700e-025
  1.0327129e+003  1.4106400e-024
  1.0329954e+003  1.1745200e-024
  1.0332778e+003  1.4168400e-024
  1.0335605e+003  1.5383200e-024
  1.0338431e+003  1.4266900e-024
  1.0341257e+003  1.2835900e-024
  1.0344083e+003  9.9900900e-025
  1.0346910e+003  9.2362900e-025
  1.0349739e+003  1.1390400e-024
  1.0352567e+003  7.3128100e-025
  1.0355395e+003  1.6014000e-024
  1.0358224e+003  1.4850000e-024
  1.0361054e+003  1.6694200e-024
  1.0363883e+003  1.0218000e-024
  1.0366713e+003  9.2730000e-025
  1.0369544e+003  3.9178500e-025
  1.0372376e+003  6.4418000e-025
  1.0375207e+003  2.0543700e-025
  1.0378039e+003  1.3668800e-024
  1.0380871e+003  1.2251200e-024
  1.0383705e+003  1.5959000e-024
  1.0386538e+003  1.0180900e-024
  1.0389371e+003  1.7932600e-024
  1.0392205e+003  1.5506600e-024
  1.0395040e+003  1.2637900e-024
  1.0397876e+003  3.0803700e-025
  1.0400711e+003  1.3715600e-024
  1.0403547e+003  1.7562400e-024
  1.0406383e+003  1.7652800e-024
  1.0409221e+003  1.5988500e-024
  1.0412058e+003  1.0848900e-024
  1.0414895e+003  5.2432900e-025
  1.0417733e+003  1.5609500e-024
  1.0420573e+003  1.2882500e-024
  1.0423412e+003  1.9548600e-024
  1.0426251e+003  2.5308400e-024
  1.0429091e+003  3.5614900e-024
  1.0431932e+003  3.5181300e-024
  1.0434774e+003  3.9784900e-024
  1.0437615e+003  3.1677500e-024
  1.0440457e+003  3.8010700e-024
  1.0443299e+003  3.2929400e-024
  1.0446143e+003  4.3674600e-024
  1.0448986e+003  4.7619000e-024
  1.0451830e+003  6.3934500e-024
  1.0454674e+003  6.8192800e-024
  1.0457519e+003  7.9713000e-024
  1.0460365e+003  8.1742300e-024
  1.0463210e+003  9.0982200e-024
  1.0466056e+003  8.2939800e-024
  1.0468903e+003  7.5004700e-024
  1.0471751e+003  6.4127200e-024
  1.0474599e+003  6.7342900e-024
  1.0477447e+003  5.4245600e-024
  1.0480295e+003  5.4848500e-024
  1.0483145e+003  5.5649600e-024
  1.0485995e+003  6.2881700e-024
  1.0488845e+003  5.2819900e-024
  1.0491695e+003  5.5622200e-024
  1.0494546e+003  6.3824600e-024
  1.0497399e+003  6.7566500e-024
  1.0500251e+003  6.2589300e-024
  1.0503104e+003  6.1768000e-024
  1.0505957e+003  4.9925000e-024
  1.0508811e+003  5.4237800e-024
  1.0511665e+003  5.1854500e-024
  1.0514520e+003  5.2169400e-024
  1.0517375e+003  4.3269300e-024
  1.0520230e+003  3.6983600e-024
  1.0523088e+003  3.1843800e-024
  1.0525944e+003  3.8227500e-024
  1.0528801e+003  3.5667800e-024
  1.0531659e+003  3.6174700e-024
  1.0534313e+003  3.4276900e-024
  1.0542210e+003  2.2930400e-024
  1.0550106e+003  1.2626100e-024
  1.0558001e+003  1.0242600e-024
  1.0565895e+003  6.2713800e-025
  1.0573787e+003  1.5262600e-024
  1.0581678e+003  1.2674900e-024
  1.0589568e+003  1.6280500e-024
  1.0597455e+003  1.3503000e-024
  1.0605341e+003  1.3979300e-024
  1.0613226e+003  1.1851800e-025
  1.0621110e+003  3.8240800e-025
  1.0628993e+003  8.3084200e-025
  1.0636874e+003 -4.0034400e-025
  1.0644753e+003  1.1901300e-024
  1.0652631e+003  1.3824500e-024
  1.0660507e+003  7.3161600e-025
  1.0668383e+003  2.5685500e-025
  1.0676257e+003 -2.5409400e-025
  1.0684129e+003  7.1286900e-027
  1.0692001e+003  6.8214700e-025
  1.0699871e+003  5.9441400e-025
  1.0707739e+003  8.0611600e-025
  1.0715605e+003  1.5868100e-024
  1.0723471e+003  7.8085100e-025
  1.0731336e+003  8.3989000e-025
