* ============= O3 Absorption Cross Sections at 223K =================================
* 
* Version 2.0
* Date: August 2000
* 
* K. Bogumil, J. Orphal, and J. P. Burrows
* University of Bremen - Institute of Environmental Physics
* P. O. Box 33 04 40
* D-28334 Bremen, Germany
* e-mail: Konstanze.Bogumil@iup.physik.uni-bremen.de
* 
* 1. column title:	wavelength (air) in nm
* 2. column title:	absorption cross-section 
* 
* Wavelength range:	230 - 1070 nm
* Spectral Resolution:	0.32 nm below 311.7 nm, 0.21 nm between 311.7 nm and 402 nm, 0.52 nm
*                         between 402 nm and 597.8 nm, 0.47 nm between 597.8 nm and 781.6 nm,
*                         0.62 nm between 781.6 nm and 1052.5 nm, 1.45 nm above 1052.5 nm (FWHM)
* Number of data points in file:	4227
* 
* Experimental:
* 
* Light source:   Xenon lamp, QTH lamp for 489.5 - 718.9 nm wavelength region
* Cell:	        Multiple reflection quartz cell (White optics)
* 	        optical pathlength 505 cm and 985 cm
* Temperature:    223K
* Gas mixture:    O3, O2, N2
* Condition:      Flow measurement
* Total pressure: 50 - 900 mbar
* Spectrometer:   SCIAMACHY PFM Satellite Spectrometer (Eight channel grating spectrometer)
* 
* Note: Spectral Regions are cutted and concatenated at 287.7 nm, 302.2 nm, 311.7 nm, 316.3 nm, 
*       334.2 nm, 345.2 nm, 402 nm, 489.5 nm, 597.8 nm, 718.9 nm, 781.6 nm and 1052.5 nm.
*
* ===============================================================================================
  2.2992531e+002  4.6440000e-018
  2.3006028e+002  4.6516000e-018
  2.3019525e+002  4.6379100e-018
  2.3033001e+002  4.7058600e-018
  2.3046478e+002  4.7863500e-018
  2.3059945e+002  4.7826500e-018
  2.3073402e+002  4.9066500e-018
  2.3086849e+002  4.8917200e-018
  2.3100295e+002  4.9234300e-018
  2.3113722e+002  4.9249500e-018
  2.3127149e+002  4.9888300e-018
  2.3140566e+002  5.0238300e-018
  2.3153983e+002  5.0841700e-018
  2.3167380e+002  5.0569800e-018
  2.3180776e+002  5.2117700e-018
  2.3194163e+002  5.1645600e-018
  2.3207540e+002  5.2751400e-018
  2.3220917e+002  5.3424800e-018
  2.3234274e+002  5.3914500e-018
  2.3247631e+002  5.4488800e-018
  2.3260977e+002  5.4856500e-018
  2.3274314e+002  5.5272400e-018
  2.3287651e+002  5.5959800e-018
  2.3300968e+002  5.6220500e-018
  2.3314285e+002  5.6836000e-018
  2.3327592e+002  5.7058900e-018
  2.3340888e+002  5.7583500e-018
  2.3354175e+002  5.7948100e-018
  2.3367462e+002  5.8868700e-018
  2.3380739e+002  5.8923400e-018
  2.3394006e+002  5.9007900e-018
  2.3407263e+002  5.9680400e-018
  2.3420520e+002  6.0299500e-018
  2.3433756e+002  6.1041100e-018
  2.3446993e+002  6.1826700e-018
  2.3460220e+002  6.2231100e-018
  2.3473437e+002  6.2857000e-018
  2.3486654e+002  6.3214000e-018
  2.3499851e+002  6.3797800e-018
  2.3513048e+002  6.3777300e-018
  2.3526234e+002  6.3771200e-018
  2.3539411e+002  6.4390600e-018
  2.3552588e+002  6.4950600e-018
  2.3565755e+002  6.5230100e-018
  2.3578902e+002  6.6232900e-018
  2.3592049e+002  6.6842000e-018
  2.3605196e+002  6.7601200e-018
  2.3618323e+002  6.8070800e-018
  2.3631449e+002  6.8569300e-018
  2.3644566e+002  6.8957700e-018
  2.3657673e+002  6.9282400e-018
  2.3670770e+002  6.9603200e-018
  2.3683867e+002  7.0173000e-018
  2.3696954e+002  7.0794700e-018
  2.3710021e+002  7.1264800e-018
  2.3723098e+002  7.1794200e-018
  2.3736154e+002  7.2228400e-018
  2.3749211e+002  7.2660300e-018
  2.3762248e+002  7.3218900e-018
  2.3775285e+002  7.3758600e-018
  2.3788322e+002  7.4223100e-018
  2.3801339e+002  7.4844500e-018
  2.3814356e+002  7.5400800e-018
  2.3827353e+002  7.6009300e-018
  2.3840360e+002  7.6398000e-018
  2.3853347e+002  7.6896500e-018
  2.3866323e+002  7.7167900e-018
  2.3879300e+002  7.7582200e-018
  2.3892267e+002  7.7850500e-018
  2.3905224e+002  7.8260900e-018
  2.3918171e+002  7.8807900e-018
  2.3931118e+002  7.9595700e-018
  2.3944055e+002  8.0302500e-018
  2.3956982e+002  8.1116700e-018
  2.3969899e+002  8.1866900e-018
  2.3982806e+002  8.2424100e-018
  2.3995712e+002  8.2973000e-018
  2.4008609e+002  8.3120400e-018
  2.4021496e+002  8.3281200e-018
  2.4034373e+002  8.3394600e-018
  2.4047250e+002  8.3721900e-018
  2.4060117e+002  8.4107500e-018
  2.4072974e+002  8.4598700e-018
  2.4085821e+002  8.5118200e-018
  2.4098668e+002  8.5768000e-018
  2.4111495e+002  8.6238900e-018
  2.4124322e+002  8.6804800e-018
  2.4137139e+002  8.7491600e-018
  2.4149956e+002  8.8156800e-018
  2.4162753e+002  8.8723700e-018
  2.4175549e+002  8.9083000e-018
  2.4188336e+002  8.9282600e-018
  2.4201123e+002  8.9483500e-018
  2.4213890e+002  8.9874200e-018
  2.4226657e+002  9.0227300e-018
  2.4239414e+002  9.0697700e-018
  2.4252161e+002  9.1003400e-018
  2.4264908e+002  9.1363500e-018
  2.4277635e+002  9.1818400e-018
  2.4290362e+002  9.2373900e-018
  2.4303089e+002  9.3000300e-018
  2.4315796e+002  9.3601800e-018
  2.4328503e+002  9.4187300e-018
  2.4341200e+002  9.4681800e-018
  2.4353887e+002  9.5368900e-018
  2.4366564e+002  9.5850300e-018
  2.4379241e+002  9.6356600e-018
  2.4391908e+002  9.6686100e-018
  2.4404564e+002  9.6829500e-018
  2.4417221e+002  9.6876400e-018
  2.4429858e+002  9.6912900e-018
  2.4442495e+002  9.7033000e-018
  2.4455122e+002  9.7112200e-018
  2.4467749e+002  9.7238800e-018
  2.4480366e+002  9.7532100e-018
  2.4492973e+002  9.8131300e-018
  2.4505570e+002  9.9042600e-018
  2.4518157e+002  1.0004900e-017
  2.4530744e+002  1.0100900e-017
  2.4543321e+002  1.0167500e-017
  2.4555888e+002  1.0215300e-017
  2.4568455e+002  1.0245100e-017
  2.4581012e+002  1.0256700e-017
  2.4593559e+002  1.0278900e-017
  2.4606096e+002  1.0281400e-017
  2.4618633e+002  1.0278100e-017
  2.4631150e+002  1.0273200e-017
  2.4643667e+002  1.0272000e-017
  2.4656184e+002  1.0275400e-017
  2.4668691e+002  1.0289800e-017
  2.4681188e+002  1.0324300e-017
  2.4693675e+002  1.0373400e-017
  2.4706152e+002  1.0436300e-017
  2.4718629e+002  1.0501400e-017
  2.4731096e+002  1.0555100e-017
  2.4743553e+002  1.0601800e-017
  2.4756010e+002  1.0635400e-017
  2.4768457e+002  1.0665500e-017
  2.4780894e+002  1.0676100e-017
  2.4793331e+002  1.0664700e-017
  2.4805748e+002  1.0643800e-017
  2.4818165e+002  1.0635000e-017
  2.4830582e+002  1.0655900e-017
  2.4842979e+002  1.0708800e-017
  2.4855376e+002  1.0783800e-017
  2.4867763e+002  1.0875600e-017
  2.4880150e+002  1.0958700e-017
  2.4892527e+002  1.1013200e-017
  2.4904894e+002  1.1035100e-017
  2.4917251e+002  1.1032700e-017
  2.4929608e+002  1.1014800e-017
  2.4941955e+002  1.1013700e-017
  2.4954292e+002  1.1045600e-017
  2.4966629e+002  1.1082100e-017
  2.4978956e+002  1.1119500e-017
  2.4991273e+002  1.1139300e-017
  2.5003590e+002  1.1143800e-017
  2.5015897e+002  1.1117300e-017
  2.5028194e+002  1.1085200e-017
  2.5040481e+002  1.1052900e-017
  2.5052768e+002  1.1033800e-017
  2.5065045e+002  1.1023400e-017
  2.5077322e+002  1.1035400e-017
  2.5089579e+002  1.1048000e-017
  2.5101836e+002  1.1071700e-017
  2.5114093e+002  1.1109000e-017
  2.5126330e+002  1.1169600e-017
  2.5138577e+002  1.1266200e-017
  2.5150804e+002  1.1379500e-017
  2.5163031e+002  1.1467200e-017
  2.5175249e+002  1.1502600e-017
  2.5187456e+002  1.1493800e-017
  2.5199663e+002  1.1464700e-017
  2.5211860e+002  1.1423800e-017
  2.5224047e+002  1.1377500e-017
  2.5236234e+002  1.1333300e-017
  2.5248411e+002  1.1297000e-017
  2.5260578e+002  1.1270300e-017
  2.5272745e+002  1.1272200e-017
  2.5284902e+002  1.1291200e-017
  2.5297059e+002  1.1316100e-017
  2.5309196e+002  1.1337700e-017
  2.5321343e+002  1.1360100e-017
  2.5333470e+002  1.1396500e-017
  2.5345597e+002  1.1437200e-017
  2.5357714e+002  1.1474000e-017
  2.5369831e+002  1.1497500e-017
  2.5381938e+002  1.1505900e-017
  2.5394035e+002  1.1507600e-017
  2.5406123e+002  1.1489100e-017
  2.5418210e+002  1.1452500e-017
  2.5430297e+002  1.1397700e-017
  2.5442374e+002  1.1343200e-017
  2.5454441e+002  1.1308600e-017
  2.5466498e+002  1.1314600e-017
  2.5478555e+002  1.1363300e-017
  2.5490602e+002  1.1438700e-017
  2.5502649e+002  1.1527600e-017
  2.5514686e+002  1.1613600e-017
  2.5526713e+002  1.1672600e-017
  2.5538740e+002  1.1678700e-017
  2.5550757e+002  1.1648600e-017
  2.5562774e+002  1.1604100e-017
  2.5574772e+002  1.1552700e-017
  2.5586779e+002  1.1500700e-017
  2.5598766e+002  1.1453000e-017
  2.5610753e+002  1.1400300e-017
  2.5622740e+002  1.1341600e-017
  2.5634717e+002  1.1281400e-017
  2.5646684e+002  1.1224600e-017
  2.5658651e+002  1.1194200e-017
  2.5670608e+002  1.1191700e-017
  2.5682555e+002  1.1220400e-017
  2.5694502e+002  1.1261800e-017
  2.5706439e+002  1.1293700e-017
  2.5718377e+002  1.1299000e-017
  2.5730304e+002  1.1274100e-017
  2.5742231e+002  1.1229800e-017
  2.5754138e+002  1.1190100e-017
  2.5766055e+002  1.1163700e-017
  2.5777962e+002  1.1153000e-017
  2.5789859e+002  1.1144000e-017
  2.5801746e+002  1.1147800e-017
  2.5813633e+002  1.1186900e-017
  2.5825520e+002  1.1259100e-017
  2.5837398e+002  1.1350000e-017
  2.5849265e+002  1.1438200e-017
  2.5861132e+002  1.1490200e-017
  2.5872989e+002  1.1495100e-017
  2.5884836e+002  1.1458600e-017
  2.5896683e+002  1.1385700e-017
  2.5908530e+002  1.1277300e-017
  2.5920367e+002  1.1141900e-017
  2.5932194e+002  1.0997000e-017
  2.5944022e+002  1.0865400e-017
  2.5955839e+002  1.0760900e-017
  2.5967656e+002  1.0692800e-017
  2.5979463e+002  1.0667300e-017
  2.5991260e+002  1.0671100e-017
  2.6003067e+002  1.0718500e-017
  2.6014854e+002  1.0803400e-017
  2.6026641e+002  1.0900500e-017
  2.6038418e+002  1.0983600e-017
  2.6050196e+002  1.1044000e-017
  2.6061973e+002  1.1062500e-017
  2.6073730e+002  1.1035400e-017
  2.6085497e+002  1.0965200e-017
  2.6097244e+002  1.0867000e-017
  2.6109001e+002  1.0748300e-017
  2.6120738e+002  1.0639900e-017
  2.6132476e+002  1.0546200e-017
  2.6144213e+002  1.0481800e-017
  2.6155940e+002  1.0446000e-017
  2.6167667e+002  1.0429300e-017
  2.6179384e+002  1.0435100e-017
  2.6191091e+002  1.0451700e-017
  2.6202798e+002  1.0475300e-017
  2.6214505e+002  1.0511100e-017
  2.6226203e+002  1.0553200e-017
  2.6237900e+002  1.0569800e-017
  2.6249587e+002  1.0548200e-017
  2.6261264e+002  1.0481400e-017
  2.6272941e+002  1.0381400e-017
  2.6284618e+002  1.0260800e-017
  2.6296285e+002  1.0140300e-017
  2.6307943e+002  1.0034400e-017
  2.6319600e+002  9.9540000e-018
  2.6331257e+002  9.8959600e-018
  2.6342904e+002  9.8564600e-018
  2.6354541e+002  9.8355800e-018
  2.6366178e+002  9.8475100e-018
  2.6377815e+002  9.8806000e-018
  2.6389443e+002  9.9163600e-018
  2.6401070e+002  9.9506900e-018
  2.6412687e+002  9.9760600e-018
  2.6424304e+002  9.9932400e-018
  2.6435911e+002  9.9951200e-018
  2.6447518e+002  9.9783900e-018
  2.6459116e+002  9.9187200e-018
  2.6470713e+002  9.8211600e-018
  2.6482300e+002  9.7004400e-018
  2.6493887e+002  9.5890100e-018
  2.6505464e+002  9.5133400e-018
  2.6517041e+002  9.4909700e-018
  2.6528618e+002  9.5061600e-018
  2.6540186e+002  9.5238400e-018
  2.6551743e+002  9.5310300e-018
  2.6563310e+002  9.5218500e-018
  2.6574857e+002  9.4908900e-018
  2.6586414e+002  9.4424200e-018
  2.6597951e+002  9.3737400e-018
  2.6609499e+002  9.2973700e-018
  2.6621036e+002  9.2312700e-018
  2.6632563e+002  9.1893100e-018
  2.6644090e+002  9.1401100e-018
  2.6655617e+002  9.0774900e-018
  2.6667134e+002  8.9915500e-018
  2.6678652e+002  8.8875300e-018
  2.6690159e+002  8.7857900e-018
  2.6701666e+002  8.7113800e-018
  2.6713173e+002  8.6857000e-018
  2.6724670e+002  8.7168500e-018
  2.6736158e+002  8.7757100e-018
  2.6747645e+002  8.8230900e-018
  2.6759132e+002  8.8364200e-018
  2.6770619e+002  8.8050700e-018
  2.6782096e+002  8.7499700e-018
  2.6793563e+002  8.6753700e-018
  2.6805031e+002  8.5889500e-018
  2.6816498e+002  8.5023400e-018
  2.6827965e+002  8.4069400e-018
  2.6839422e+002  8.3142000e-018
  2.6850869e+002  8.2398000e-018
  2.6862316e+002  8.1800400e-018
  2.6873764e+002  8.1236500e-018
  2.6885201e+002  8.0688100e-018
  2.6896638e+002  8.0043700e-018
  2.6908075e+002  7.9548300e-018
  2.6919502e+002  7.9378800e-018
  2.6930930e+002  7.9571900e-018
  2.6942357e+002  8.0072300e-018
  2.6953774e+002  8.0589000e-018
  2.6965181e+002  8.0781600e-018
  2.6976598e+002  8.0527000e-018
  2.6988006e+002  7.9835100e-018
  2.6999403e+002  7.9011400e-018
  2.7010800e+002  7.8122500e-018
  2.7022197e+002  7.7223800e-018
  2.7033594e+002  7.6405600e-018
  2.7044982e+002  7.5656500e-018
  2.7056359e+002  7.4932900e-018
  2.7067746e+002  7.4318300e-018
  2.7079123e+002  7.3808300e-018
  2.7090490e+002  7.3453500e-018
  2.7101867e+002  7.3105800e-018
  2.7113235e+002  7.2676000e-018
  2.7124592e+002  7.2265100e-018
  2.7135959e+002  7.1912600e-018
  2.7147316e+002  7.1658300e-018
  2.7158663e+002  7.1542700e-018
  2.7170011e+002  7.1428700e-018
  2.7181358e+002  7.1282200e-018
  2.7192705e+002  7.0928900e-018
  2.7204042e+002  7.0286400e-018
  2.7215379e+002  6.9486200e-018
  2.7226707e+002  6.8794100e-018
  2.7238044e+002  6.8296200e-018
  2.7249371e+002  6.7870900e-018
  2.7260688e+002  6.7378600e-018
  2.7272006e+002  6.6804400e-018
  2.7283323e+002  6.6284000e-018
  2.7294640e+002  6.5946900e-018
  2.7305947e+002  6.5709800e-018
  2.7317254e+002  6.5372700e-018
  2.7328562e+002  6.4804300e-018
  2.7339859e+002  6.4148400e-018
  2.7351156e+002  6.3447000e-018
  2.7362453e+002  6.2736900e-018
  2.7373740e+002  6.2043900e-018
  2.7385038e+002  6.1349300e-018
  2.7396315e+002  6.0609700e-018
  2.7407602e+002  5.9840100e-018
  2.7418879e+002  5.9141500e-018
  2.7430156e+002  5.8687400e-018
  2.7441434e+002  5.8541400e-018
  2.7452701e+002  5.8604300e-018
  2.7463968e+002  5.8673600e-018
  2.7475235e+002  5.8618300e-018
  2.7486493e+002  5.8404700e-018
  2.7497760e+002  5.7978100e-018
  2.7509007e+002  5.7451800e-018
  2.7520264e+002  5.6861900e-018
  2.7531511e+002  5.6268200e-018
  2.7542769e+002  5.5641500e-018
  2.7554006e+002  5.5040300e-018
  2.7565253e+002  5.4436600e-018
  2.7576490e+002  5.3875000e-018
  2.7587727e+002  5.3499100e-018
  2.7598965e+002  5.3303500e-018
  2.7610192e+002  5.3137900e-018
  2.7621429e+002  5.2867600e-018
  2.7632656e+002  5.2376700e-018
  2.7643874e+002  5.1764000e-018
  2.7655101e+002  5.1210500e-018
  2.7666318e+002  5.0776900e-018
  2.7677535e+002  5.0430300e-018
  2.7688742e+002  5.0090900e-018
  2.7699960e+002  4.9778300e-018
  2.7711167e+002  4.9536100e-018
  2.7722374e+002  4.9334500e-018
  2.7733581e+002  4.9078800e-018
  2.7744779e+002  4.8599200e-018
  2.7755976e+002  4.8017900e-018
  2.7767173e+002  4.7399300e-018
  2.7778370e+002  4.6788000e-018
  2.7789567e+002  4.6202200e-018
  2.7800755e+002  4.5735200e-018
  2.7811942e+002  4.5351200e-018
  2.7823129e+002  4.5000100e-018
  2.7834306e+002  4.4697300e-018
  2.7845494e+002  4.4341100e-018
  2.7856671e+002  4.3963000e-018
  2.7867848e+002  4.3608300e-018
  2.7879015e+002  4.3085700e-018
  2.7890193e+002  4.2599300e-018
  2.7901360e+002  4.2099700e-018
  2.7912527e+002  4.1638500e-018
  2.7923694e+002  4.1271100e-018
  2.7934861e+002  4.1028600e-018
  2.7946019e+002  4.0847900e-018
  2.7957176e+002  4.0692100e-018
  2.7968333e+002  4.0524800e-018
  2.7979490e+002  4.0240800e-018
  2.7990648e+002  3.9829000e-018
  2.8001795e+002  3.9273900e-018
  2.8012942e+002  3.8631100e-018
  2.8024089e+002  3.7988400e-018
  2.8035237e+002  3.7464400e-018
  2.8046384e+002  3.7068100e-018
  2.8057521e+002  3.6672600e-018
  2.8068658e+002  3.6421700e-018
  2.8079805e+002  3.6224100e-018
  2.8090933e+002  3.6079000e-018
  2.8102070e+002  3.5790400e-018
  2.8113207e+002  3.5373900e-018
  2.8124334e+002  3.4810000e-018
  2.8135462e+002  3.4124600e-018
  2.8146589e+002  3.3475700e-018
  2.8157716e+002  3.2912700e-018
  2.8168833e+002  3.2467800e-018
  2.8179961e+002  3.2115600e-018
  2.8191078e+002  3.1833200e-018
  2.8202195e+002  3.1671600e-018
  2.8213312e+002  3.1563500e-018
  2.8224430e+002  3.1380500e-018
  2.8235547e+002  3.1080200e-018
  2.8246654e+002  3.0653000e-018
  2.8257761e+002  3.0233700e-018
  2.8268869e+002  2.9871300e-018
  2.8279976e+002  2.9604400e-018
  2.8291083e+002  2.9448400e-018
  2.8302190e+002  2.9373200e-018
  2.8313287e+002  2.9383300e-018
  2.8324395e+002  2.9373400e-018
  2.8335492e+002  2.9286100e-018
  2.8346589e+002  2.8962800e-018
  2.8357686e+002  2.8471400e-018
  2.8368784e+002  2.7881800e-018
  2.8379871e+002  2.7301600e-018
  2.8390968e+002  2.6760900e-018
  2.8402055e+002  2.6247500e-018
  2.8413143e+002  2.5911100e-018
  2.8424240e+002  2.5686100e-018
  2.8435317e+002  2.5521500e-018
  2.8446404e+002  2.5287900e-018
  2.8457492e+002  2.5037000e-018
  2.8468569e+002  2.4796000e-018
  2.8479656e+002  2.4530600e-018
  2.8490733e+002  2.4258600e-018
  2.8501811e+002  2.3875800e-018
  2.8512888e+002  2.3446900e-018
  2.8523965e+002  2.3061900e-018
  2.8535042e+002  2.2704700e-018
  2.8546119e+002  2.2463400e-018
  2.8557187e+002  2.2314300e-018
  2.8568264e+002  2.2206100e-018
  2.8579331e+002  2.2112700e-018
  2.8590398e+002  2.1953900e-018
  2.8601466e+002  2.1732900e-018
  2.8612533e+002  2.1498600e-018
  2.8623600e+002  2.1201700e-018
  2.8634667e+002  2.0940300e-018
  2.8645725e+002  2.0688900e-018
  2.8656792e+002  2.0388100e-018
  2.8667849e+002  2.0149000e-018
  2.8678916e+002  1.9932900e-018
  2.8689974e+002  1.9782000e-018
  2.8701031e+002  1.9648400e-018
  2.8712088e+002  1.9485700e-018
  2.8723145e+002  1.9284600e-018
  2.8734203e+002  1.9023300e-018
  2.8745260e+002  1.8711100e-018
  2.8756307e+002  1.8325600e-018
  2.8767364e+002  1.7943400e-018
  2.8778412e+002  1.7609600e-018
  2.8789469e+002  1.7314600e-018
  2.8800516e+002  1.7074100e-018
  2.8811563e+002  1.6822000e-018
  2.8822611e+002  1.6678000e-018
  2.8833658e+002  1.6464400e-018
  2.8844705e+002  1.6324200e-018
  2.8855752e+002  1.6184600e-018
  2.8866799e+002  1.6016200e-018
  2.8877837e+002  1.5830800e-018
  2.8888884e+002  1.5634500e-018
  2.8899921e+002  1.5390400e-018
  2.8910968e+002  1.5239400e-018
  2.8922006e+002  1.5037800e-018
  2.8933043e+002  1.4859600e-018
  2.8944090e+002  1.4599500e-018
  2.8955127e+002  1.4425800e-018
  2.8966165e+002  1.4231500e-018
  2.8977202e+002  1.4070100e-018
  2.8988239e+002  1.3934200e-018
  2.8999276e+002  1.3782200e-018
  2.9010304e+002  1.3659200e-018
  2.9021341e+002  1.3468900e-018
  2.9032378e+002  1.3333600e-018
  2.9043405e+002  1.3174500e-018
  2.9054443e+002  1.3059200e-018
  2.9065470e+002  1.2908000e-018
  2.9076507e+002  1.2774000e-018
  2.9087534e+002  1.2620200e-018
  2.9098562e+002  1.2412300e-018
  2.9109589e+002  1.2233600e-018
  2.9120626e+002  1.2018500e-018
  2.9131653e+002  1.1811900e-018
  2.9142681e+002  1.1573200e-018
  2.9153708e+002  1.1357000e-018
  2.9164735e+002  1.1125800e-018
  2.9175752e+002  1.0977900e-018
  2.9186780e+002  1.0833600e-018
  2.9197807e+002  1.0726300e-018
  2.9208834e+002  1.0550300e-018
  2.9219851e+002  1.0392800e-018
  2.9230878e+002  1.0312500e-018
  2.9241906e+002  1.0242500e-018
  2.9252923e+002  1.0163300e-018
  2.9263950e+002  1.0076200e-018
  2.9274967e+002  9.9964600e-019
  2.9285985e+002  9.8191100e-019
  2.9297012e+002  9.6691200e-019
  2.9308029e+002  9.5222400e-019
  2.9319046e+002  9.3524300e-019
  2.9330064e+002  9.1883300e-019
  2.9341091e+002  9.0113600e-019
  2.9352108e+002  8.8493900e-019
  2.9363125e+002  8.6978200e-019
  2.9374143e+002  8.5659600e-019
  2.9385160e+002  8.4258800e-019
  2.9396177e+002  8.3240500e-019
  2.9407194e+002  8.2884600e-019
  2.9418212e+002  8.2340100e-019
  2.9429219e+002  8.1190200e-019
  2.9440236e+002  8.0116400e-019
  2.9451253e+002  7.9310600e-019
  2.9462271e+002  7.8324000e-019
  2.9473278e+002  7.6993300e-019
  2.9484295e+002  7.5856600e-019
  2.9495312e+002  7.5049100e-019
  2.9506319e+002  7.4342100e-019
  2.9517337e+002  7.2581700e-019
  2.9528354e+002  7.1153400e-019
  2.9539361e+002  6.9208300e-019
  2.9550378e+002  6.8190300e-019
  2.9561386e+002  6.7274500e-019
  2.9572393e+002  6.6626200e-019
  2.9583410e+002  6.6066500e-019
  2.9594417e+002  6.4866300e-019
  2.9605435e+002  6.3601900e-019
  2.9616442e+002  6.2118000e-019
  2.9627449e+002  6.0941400e-019
  2.9638456e+002  6.0601500e-019
  2.9649474e+002  5.9803000e-019
  2.9660481e+002  5.9114800e-019
  2.9671488e+002  5.8720500e-019
  2.9682495e+002  5.8443700e-019
  2.9693503e+002  5.7027700e-019
  2.9704510e+002  5.5992300e-019
  2.9715527e+002  5.4904200e-019
  2.9726534e+002  5.4075400e-019
  2.9737541e+002  5.3099700e-019
  2.9748549e+002  5.2319800e-019
  2.9759556e+002  5.1542600e-019
  2.9770563e+002  5.0527900e-019
  2.9781570e+002  4.9693500e-019
  2.9792568e+002  4.8948900e-019
  2.9803575e+002  4.8258200e-019
  2.9814582e+002  4.7674400e-019
  2.9825589e+002  4.7113600e-019
  2.9836597e+002  4.6493000e-019
  2.9847604e+002  4.5914800e-019
  2.9858611e+002  4.5480600e-019
  2.9869608e+002  4.5112100e-019
  2.9880616e+002  4.4648400e-019
  2.9891623e+002  4.4022500e-019
  2.9902630e+002  4.3232200e-019
  2.9913627e+002  4.2346600e-019
  2.9924634e+002  4.1484100e-019
  2.9935642e+002  4.0611000e-019
  2.9946639e+002  3.9788300e-019
  2.9957646e+002  3.9069500e-019
  2.9968643e+002  3.8473100e-019
  2.9979651e+002  3.8061600e-019
  2.9990648e+002  3.7747800e-019
  3.0001655e+002  3.7347600e-019
  3.0012652e+002  3.6876400e-019
  3.0023660e+002  3.6339400e-019
  3.0034657e+002  3.5880500e-019
  3.0045664e+002  3.5471000e-019
  3.0056661e+002  3.5039100e-019
  3.0067669e+002  3.4511100e-019
  3.0078666e+002  3.3849000e-019
  3.0089663e+002  3.3140300e-019
  3.0100670e+002  3.2405800e-019
  3.0111667e+002  3.1722900e-019
  3.0122665e+002  3.1140500e-019
  3.0133662e+002  3.0649400e-019
  3.0144669e+002  3.0207600e-019
  3.0155666e+002  2.9853700e-019
  3.0166664e+002  2.9583400e-019
  3.0177661e+002  2.9385500e-019
  3.0188658e+002  2.9168300e-019
  3.0199655e+002  2.8875200e-019
  3.0210653e+002  2.8488200e-019
  3.0221650e+002  2.8116000e-019
  3.0232647e+002  2.7692300e-019
  3.0243644e+002  2.7203400e-019
  3.0254641e+002  2.6682300e-019
  3.0265639e+002  2.6137300e-019
  3.0276636e+002  2.5590900e-019
  3.0287633e+002  2.5039200e-019
  3.0298630e+002  2.4517700e-019
  3.0309628e+002  2.4098300e-019
  3.0320625e+002  2.3762000e-019
  3.0331612e+002  2.3451800e-019
  3.0342609e+002  2.3180600e-019
  3.0353607e+002  2.2931200e-019
  3.0364594e+002  2.2717000e-019
  3.0375591e+002  2.2566100e-019
  3.0386588e+002  2.2497000e-019
  3.0397575e+002  2.2369200e-019
  3.0408573e+002  2.2106800e-019
  3.0419560e+002  2.1745600e-019
  3.0430557e+002  2.1375400e-019
  3.0441544e+002  2.1031900e-019
  3.0452542e+002  2.0648700e-019
  3.0463529e+002  2.0187400e-019
  3.0474516e+002  1.9691200e-019
  3.0485513e+002  1.9228000e-019
  3.0496501e+002  1.8781600e-019
  3.0507488e+002  1.8381900e-019
  3.0518475e+002  1.8005700e-019
  3.0529462e+002  1.7694600e-019
  3.0540449e+002  1.7441300e-019
  3.0551437e+002  1.7309300e-019
  3.0562424e+002  1.7222600e-019
  3.0573411e+002  1.7133400e-019
  3.0584398e+002  1.6949700e-019
  3.0595386e+002  1.6763100e-019
  3.0606373e+002  1.6644500e-019
  3.0617350e+002  1.6608500e-019
  3.0628337e+002  1.6506900e-019
  3.0639324e+002  1.6256900e-019
  3.0650302e+002  1.5917900e-019
  3.0661289e+002  1.5591800e-019
  3.0672266e+002  1.5317700e-019
  3.0683253e+002  1.5025000e-019
  3.0694231e+002  1.4657500e-019
  3.0705208e+002  1.4243400e-019
  3.0716185e+002  1.3842400e-019
  3.0727172e+002  1.3525400e-019
  3.0738150e+002  1.3257400e-019
  3.0749127e+002  1.3027700e-019
  3.0760104e+002  1.2846400e-019
  3.0771081e+002  1.2742900e-019
  3.0782048e+002  1.2733200e-019
  3.0793026e+002  1.2702000e-019
  3.0804003e+002  1.2672400e-019
  3.0814980e+002  1.2583100e-019
  3.0825947e+002  1.2364200e-019
  3.0836925e+002  1.2106400e-019
  3.0847892e+002  1.1947600e-019
  3.0858859e+002  1.1933400e-019
  3.0869836e+002  1.1918800e-019
  3.0880804e+002  1.1817000e-019
  3.0891771e+002  1.1627500e-019
  3.0902738e+002  1.1488400e-019
  3.0913705e+002  1.1266900e-019
  3.0924672e+002  1.0952500e-019
  3.0935630e+002  1.0581900e-019
  3.0946597e+002  1.0150900e-019
  3.0957564e+002  9.8088600e-020
  3.0968521e+002  9.6204800e-020
  3.0979489e+002  9.4961700e-020
  3.0990446e+002  9.4195400e-020
  3.1001403e+002  9.3656800e-020
  3.1012360e+002  9.3728100e-020
  3.1023317e+002  9.3928500e-020
  3.1034275e+002  9.2644400e-020
  3.1045232e+002  9.0424000e-020
  3.1056189e+002  8.8372100e-020
  3.1067136e+002  8.7328000e-020
  3.1078094e+002  8.6516800e-020
  3.1089041e+002  8.5273700e-020
  3.1099988e+002  8.4050300e-020
  3.1110935e+002  8.3688500e-020
  3.1121883e+002  8.3934600e-020
  3.1132830e+002  8.4373600e-020
  3.1143777e+002  8.3974500e-020
  3.1154724e+002  8.2478500e-020
  3.1165661e+002  8.0408600e-020
  3.1173929e+002  6.9778300e-020
  3.1185396e+002  6.7284500e-020
  3.1196874e+002  6.5419200e-020
  3.1208341e+002  6.3975600e-020
  3.1219808e+002  6.2866600e-020
  3.1231275e+002  6.1456200e-020
  3.1242742e+002  5.9916300e-020
  3.1254199e+002  5.8438200e-020
  3.1265656e+002  5.7411300e-020
  3.1277123e+002  5.6650100e-020
  3.1288570e+002  5.6289000e-020
  3.1300027e+002  5.5802100e-020
  3.1311475e+002  5.5626000e-020
  3.1322932e+002  5.6323100e-020
  3.1334379e+002  5.8050900e-020
  3.1345826e+002  5.9106900e-020
  3.1357263e+002  5.8874000e-020
  3.1368710e+002  5.7348800e-020
  3.1380147e+002  5.5342400e-020
  3.1391584e+002  5.3239700e-020
  3.1403011e+002  5.1106700e-020
  3.1414448e+002  4.8818000e-020
  3.1425876e+002  4.6535400e-020
  3.1437303e+002  4.4268700e-020
  3.1448730e+002  4.2401800e-020
  3.1460157e+002  4.1380900e-020
  3.1471574e+002  4.1314800e-020
  3.1483001e+002  4.1421100e-020
  3.1494418e+002  4.1122500e-020
  3.1505835e+002  4.0593200e-020
  3.1517242e+002  4.0685100e-020
  3.1528660e+002  4.2079500e-020
  3.1540067e+002  4.4425300e-020
  3.1551474e+002  4.5747100e-020
  3.1562881e+002  4.5049400e-020
  3.1574278e+002  4.2875200e-020
  3.1585675e+002  4.0421600e-020
  3.1597072e+002  3.8066200e-020
  3.1608469e+002  3.6508700e-020
  3.1619866e+002  3.5439300e-020
  3.1631254e+002  3.4470400e-020
  3.1642651e+002  3.3212500e-020
  3.1654038e+002  3.1870800e-020
  3.1665415e+002  3.0716300e-020
  3.1676802e+002  3.0491900e-020
  3.1688179e+002  3.1405000e-020
  3.1699556e+002  3.2712600e-020
  3.1710933e+002  3.3042800e-020
  3.1722310e+002  3.2450700e-020
  3.1733678e+002  3.2067900e-020
  3.1745055e+002  3.3145900e-020
  3.1756422e+002  3.4655800e-020
  3.1767779e+002  3.4583100e-020
  3.1779146e+002  3.2734300e-020
  3.1790503e+002  3.0893400e-020
  3.1801860e+002  2.9680700e-020
  3.1813217e+002  2.8425200e-020
  3.1824574e+002  2.6537000e-020
  3.1835922e+002  2.4629500e-020
  3.1847279e+002  2.3197200e-020
  3.1858626e+002  2.2388900e-020
  3.1869963e+002  2.1702800e-020
  3.1881310e+002  2.0945700e-020
  3.1892647e+002  2.0087600e-020
  3.1903984e+002  1.9638900e-020
  3.1915321e+002  2.0240600e-020
  3.1926659e+002  2.2329000e-020
  3.1937986e+002  2.4790400e-020
  3.1949313e+002  2.5847200e-020
  3.1960640e+002  2.5225300e-020
  3.1971967e+002  2.4517400e-020
  3.1983284e+002  2.5189200e-020
  3.1994611e+002  2.6635400e-020
  3.2005928e+002  2.6425700e-020
  3.2017246e+002  2.4492200e-020
  3.2028553e+002  2.2092800e-020
  3.2039860e+002  2.0266700e-020
  3.2051177e+002  1.9083400e-020
  3.2062474e+002  1.7932900e-020
  3.2073781e+002  1.6441100e-020
  3.2085088e+002  1.4986300e-020
  3.2096385e+002  1.3876900e-020
  3.2107683e+002  1.3318200e-020
  3.2118970e+002  1.3280200e-020
  3.2130267e+002  1.3512600e-020
  3.2141554e+002  1.3594100e-020
  3.2152841e+002  1.3407000e-020
  3.2164128e+002  1.3388200e-020
  3.2175415e+002  1.4496000e-020
  3.2186692e+002  1.7204800e-020
  3.2197970e+002  2.0002300e-020
  3.2209247e+002  2.0638100e-020
  3.2220524e+002  1.9495600e-020
  3.2231791e+002  1.8050500e-020
  3.2243058e+002  1.7814300e-020
  3.2254325e+002  1.9029700e-020
  3.2265592e+002  1.9754400e-020
  3.2276860e+002  1.8690000e-020
  3.2288117e+002  1.6781000e-020
  3.2299374e+002  1.4784500e-020
  3.2310631e+002  1.3018700e-020
  3.2321878e+002  1.1522900e-020
  3.2333135e+002  1.0338200e-020
  3.2344382e+002  9.3429000e-021
  3.2355629e+002  8.5109100e-021
  3.2366867e+002  7.8433500e-021
  3.2378114e+002  7.4492000e-021
  3.2389351e+002  7.4702500e-021
  3.2400588e+002  8.0646600e-021
  3.2411825e+002  8.8752100e-021
  3.2423052e+002  9.3217500e-021
  3.2434289e+002  9.3334300e-021
  3.2445517e+002  9.3752200e-021
  3.2456734e+002  1.0214500e-020
  3.2467961e+002  1.2574200e-020
  3.2479178e+002  1.4932900e-020
  3.2490405e+002  1.5289500e-020
  3.2501612e+002  1.4143400e-020
  3.2512829e+002  1.2680700e-020
  3.2524047e+002  1.1602300e-020
  3.2535254e+002  1.1497900e-020
  3.2546461e+002  1.1808900e-020
  3.2557658e+002  1.1454100e-020
  3.2568865e+002  1.0395700e-020
  3.2580062e+002  9.2140200e-021
  3.2591259e+002  8.1097700e-021
  3.2602457e+002  7.1998800e-021
  3.2613654e+002  6.4595800e-021
  3.2624841e+002  5.9268000e-021
  3.2636028e+002  5.5272200e-021
  3.2647215e+002  5.1922100e-021
  3.2658402e+002  4.8775900e-021
  3.2669580e+002  4.6717500e-021
  3.2680757e+002  4.7013300e-021
  3.2691934e+002  5.2603600e-021
  3.2703111e+002  6.3041800e-021
  3.2714288e+002  7.1013300e-021
  3.2725455e+002  7.1994600e-021
  3.2736622e+002  6.8940600e-021
  3.2747790e+002  6.6192200e-021
  3.2758957e+002  7.0593500e-021
  3.2770114e+002  8.6446800e-021
  3.2781271e+002  1.0510500e-020
  3.2792428e+002  1.1253400e-020
  3.2803585e+002  1.0737600e-020
  3.2814733e+002  9.6193400e-021
  3.2825880e+002  8.4335200e-021
  3.2837027e+002  7.3433700e-021
  3.2848174e+002  6.3921700e-021
  3.2859321e+002  5.5557400e-021
  3.2870458e+002  4.8434200e-021
  3.2881595e+002  4.2499700e-021
  3.2892733e+002  3.7817000e-021
  3.2903870e+002  3.3850600e-021
  3.2914997e+002  3.0843900e-021
  3.2926124e+002  2.8555200e-021
  3.2937251e+002  2.7599900e-021
  3.2948378e+002  2.7971000e-021
  3.2959506e+002  2.8615400e-021
  3.2970623e+002  2.8358800e-021
  3.2981740e+002  2.7882300e-021
  3.2992857e+002  2.8596800e-021
  3.3003974e+002  3.3313700e-021
  3.3015081e+002  4.4198200e-021
  3.3026189e+002  5.5219600e-021
  3.3037296e+002  5.8474900e-021
  3.3048403e+002  5.5786200e-021
  3.3059500e+002  5.1560000e-021
  3.3070607e+002  4.8984500e-021
  3.3081704e+002  5.1791300e-021
  3.3092792e+002  6.1627500e-021
  3.3103889e+002  6.8775000e-021
  3.3114976e+002  6.7101700e-021
  3.3126073e+002  6.0658000e-021
  3.3137160e+002  5.3299700e-021
  3.3148237e+002  4.6295800e-021
  3.3159325e+002  4.0336100e-021
  3.3170402e+002  3.5083300e-021
  3.3181479e+002  3.0499700e-021
  3.3192556e+002  2.6706500e-021
  3.3203633e+002  2.3637400e-021
  3.3214700e+002  2.1066100e-021
  3.3225768e+002  1.9059600e-021
  3.3236835e+002  1.7483300e-021
  3.3247902e+002  1.6454700e-021
  3.3258959e+002  1.6163300e-021
  3.3270026e+002  1.7067700e-021
  3.3281083e+002  1.9106500e-021
  3.3292141e+002  2.1089700e-021
  3.3303188e+002  2.2148100e-021
  3.3314245e+002  2.2382300e-021
  3.3325292e+002  2.2739300e-021
  3.3336339e+002  2.5177100e-021
  3.3347387e+002  3.2912000e-021
  3.3358424e+002  4.3116400e-021
  3.3369471e+002  4.7898600e-021
  3.3380508e+002  4.6581300e-021
  3.3391545e+002  4.2236800e-021
  3.3402582e+002  3.7179600e-021
  3.3413610e+002  3.2242100e-021
  3.3424637e+002  2.7943700e-021
  3.3435674e+002  2.4419900e-021
  3.3446691e+002  2.1704300e-021
  3.3457718e+002  1.9937800e-021
  3.3468736e+002  1.8088700e-021
  3.3479763e+002  1.6099700e-021
  3.3490780e+002  1.4184700e-021
  3.3501797e+002  1.2502700e-021
  3.3512804e+002  1.1126100e-021
  3.3523821e+002  1.0022300e-021
  3.3534829e+002  9.3501800e-022
  3.3545836e+002  9.0145900e-022
  3.3556833e+002  8.8867900e-022
  3.3567840e+002  8.7020400e-022
  3.3578837e+002  8.4151400e-022
  3.3589835e+002  8.2686500e-022
  3.3600832e+002  8.6752400e-022
  3.3611829e+002  9.9689300e-022
  3.3622826e+002  1.2550100e-021
  3.3633813e+002  1.5832600e-021
  3.3644800e+002  1.7779600e-021
  3.3655788e+002  1.7672500e-021
  3.3666775e+002  1.6851100e-021
  3.3677752e+002  1.6442300e-021
  3.3688729e+002  1.7468500e-021
  3.3699716e+002  2.1518900e-021
  3.3710684e+002  2.8112600e-021
  3.3721661e+002  3.1598300e-021
  3.3732638e+002  3.0534900e-021
  3.3743605e+002  2.7588500e-021
  3.3754572e+002  2.4384700e-021
  3.3765540e+002  2.1215300e-021
  3.3776497e+002  1.8400800e-021
  3.3787464e+002  1.5891100e-021
  3.3798421e+002  1.3726000e-021
  3.3809378e+002  1.1835500e-021
  3.3820336e+002  1.0249400e-021
  3.3831293e+002  8.9110400e-022
  3.3842240e+002  7.8613400e-022
  3.3853197e+002  7.0727800e-022
  3.3864144e+002  6.5728000e-022
  3.3875092e+002  6.1980700e-022
  3.3886029e+002  5.9325100e-022
  3.3896976e+002  5.7114300e-022
  3.3907913e+002  5.6371600e-022
  3.3918850e+002  5.9324800e-022
  3.3929788e+002  6.5401000e-022
  3.3940725e+002  6.9209800e-022
  3.3951652e+002  6.9554700e-022
  3.3962589e+002  6.8885700e-022
  3.3973516e+002  7.2046000e-022
  3.3984444e+002  8.7060900e-022
  3.3995361e+002  1.2046600e-021
  3.4006288e+002  1.5221600e-021
  3.4017205e+002  1.6009900e-021
  3.4028132e+002  1.5018900e-021
  3.4039050e+002  1.3464900e-021
  3.4049957e+002  1.1784100e-021
  3.4060874e+002  1.0244000e-021
  3.4071781e+002  8.8532300e-022
  3.4082698e+002  7.6627800e-022
  3.4093606e+002  6.6508300e-022
  3.4104513e+002  5.7983300e-022
  3.4115410e+002  5.0710800e-022
  3.4126317e+002  4.5099100e-022
  3.4137214e+002  4.0216100e-022
  3.4148112e+002  3.6369300e-022
  3.4159009e+002  3.3483400e-022
  3.4169906e+002  3.1578200e-022
  3.4180803e+002  3.0535600e-022
  3.4191690e+002  3.0431200e-022
  3.4202578e+002  3.0189400e-022
  3.4213465e+002  2.9112600e-022
  3.4224352e+002  2.7147200e-022
  3.4235239e+002  2.5220200e-022
  3.4246116e+002  2.3915100e-022
  3.4257004e+002  2.3743300e-022
  3.4267881e+002  2.5246300e-022
  3.4278758e+002  2.8682500e-022
  3.4289635e+002  3.2372900e-022
  3.4300502e+002  3.8235900e-022
  3.4311380e+002  4.4816100e-022
  3.4322247e+002  4.7679700e-022
  3.4333114e+002  4.7046100e-022
  3.4343981e+002  4.6500300e-022
  3.4354849e+002  4.8360500e-022
  3.4365706e+002  5.7172700e-022
  3.4376573e+002  8.0931200e-022
  3.4387430e+002  1.0957200e-021
  3.4398287e+002  1.2091100e-021
  3.4409145e+002  1.1623100e-021
  3.4420002e+002  1.0519100e-021
  3.4430849e+002  9.2734500e-022
  3.4441706e+002  8.0508500e-022
  3.4452553e+002  6.9807700e-022
  3.4463401e+002  6.0610800e-022
  3.4474248e+002  5.2842200e-022
  3.4485095e+002  4.6311400e-022
  3.4495932e+002  3.9954200e-022
  3.4506770e+002  3.5264500e-022
  3.4517617e+002  3.1953000e-022
  3.4528454e+002  2.9469500e-022
  3.4539291e+002  2.7689800e-022
  3.4550118e+002  2.6989300e-022
  3.4560956e+002  2.6657300e-022
  3.4571783e+002  2.5440000e-022
  3.4582620e+002  2.3453400e-022
  3.4593447e+002  2.1136300e-022
  3.4604274e+002  1.9138500e-022
  3.4615092e+002  1.7679400e-022
  3.4625919e+002  1.6913600e-022
  3.4636736e+002  1.6500000e-022
  3.4647563e+002  1.6099800e-022
  3.4658381e+002  1.5650200e-022
  3.4669198e+002  1.5519100e-022
  3.4680015e+002  1.6226200e-022
  3.4690822e+002  1.9102500e-022
  3.4701639e+002  2.6241400e-022
  3.4712447e+002  3.5059400e-022
  3.4723254e+002  3.8370200e-022
  3.4734061e+002  3.6738100e-022
  3.4744868e+002  3.3261700e-022
  3.4755676e+002  2.9477800e-022
  3.4766483e+002  2.5768400e-022
  3.4777280e+002  2.2466900e-022
  3.4788087e+002  1.9572900e-022
  3.4798884e+002  1.7065900e-022
  3.4809682e+002  1.4948600e-022
  3.4820479e+002  1.3226100e-022
  3.4831266e+002  1.1834000e-022
  3.4842063e+002  1.0917100e-022
  3.4852851e+002  1.0384400e-022
  3.4863648e+002  9.9658300e-023
  3.4874435e+002  9.3148300e-023
  3.4885222e+002  8.5621200e-023
  3.4896000e+002  7.8853700e-023
  3.4906787e+002  7.3960500e-023
  3.4917574e+002  7.3522400e-023
  3.4928351e+002  8.2688700e-023
  3.4939128e+002  9.5300400e-023
  3.4949916e+002  1.0010800e-022
  3.4960693e+002  9.7311200e-023
  3.4971460e+002  9.1416900e-023
  3.4982237e+002  8.5595300e-023
  3.4993015e+002  8.1215700e-023
  3.5003782e+002  8.0962800e-023
  3.5014559e+002  8.2900200e-023
  3.5025326e+002  8.3649600e-023
  3.5036093e+002  8.3903200e-023
  3.5046861e+002  8.4482600e-023
  3.5057618e+002  8.5522900e-023
  3.5068385e+002  8.6638200e-023
  3.5079152e+002  8.9076900e-023
  3.5089910e+002  9.5698300e-023
  3.5100667e+002  1.1461100e-022
  3.5111424e+002  1.6119100e-022
  3.5122181e+002  2.4488400e-022
  3.5132939e+002  3.1910900e-022
  3.5143696e+002  3.3961300e-022
  3.5154453e+002  3.2291800e-022
  3.5165200e+002  2.9379000e-022
  3.5175947e+002  2.6055900e-022
  3.5186705e+002  2.2854300e-022
  3.5197452e+002  1.9893300e-022
  3.5208199e+002  1.7429800e-022
  3.5218936e+002  1.5415200e-022
  3.5229684e+002  1.4046000e-022
  3.5240431e+002  1.3232500e-022
  3.5251168e+002  1.2651900e-022
  3.5261915e+002  1.1781500e-022
  3.5272653e+002  1.0671000e-022
  3.5283390e+002  9.5211700e-023
  3.5294127e+002  8.4614300e-023
  3.5304864e+002  7.5399300e-023
  3.5315602e+002  6.9018100e-023
  3.5326329e+002  6.4559100e-023
  3.5337066e+002  5.9871900e-023
  3.5347793e+002  5.4396500e-023
  3.5358530e+002  4.9290800e-023
  3.5369258e+002  4.4421800e-023
  3.5379985e+002  4.0314000e-023
  3.5390712e+002  3.7051700e-023
  3.5401439e+002  3.4715800e-023
  3.5412157e+002  3.2876000e-023
  3.5422884e+002  3.2179500e-023
  3.5433611e+002  3.2489600e-023
  3.5444328e+002  3.3382600e-023
  3.5455046e+002  3.5765400e-023
  3.5465773e+002  4.0358700e-023
  3.5476490e+002  4.7405000e-023
  3.5487207e+002  5.4493500e-023
  3.5497915e+002  5.7479600e-023
  3.5508632e+002  5.6987900e-023
  3.5519349e+002  5.3938100e-023
  3.5530056e+002  4.9493100e-023
  3.5540774e+002  4.4753000e-023
  3.5551481e+002  4.0360300e-023
  3.5562198e+002  3.6517300e-023
  3.5572905e+002  3.3982700e-023
  3.5583612e+002  3.2166100e-023
  3.5594320e+002  3.0176700e-023
  3.5605027e+002  2.7778600e-023
  3.5615724e+002  2.5793300e-023
  3.5626431e+002  2.4011300e-023
  3.5637129e+002  2.3602800e-023
  3.5647836e+002  2.6061800e-023
  3.5658533e+002  3.1946600e-023
  3.5669240e+002  3.6573500e-023
  3.5679938e+002  3.7593100e-023
  3.5690635e+002  3.5571700e-023
  3.5701332e+002  3.2560800e-023
  3.5712029e+002  2.9832500e-023
  3.5722717e+002  2.7774400e-023
  3.5733414e+002  2.7416000e-023
  3.5744111e+002  2.7473400e-023
  3.5754798e+002  2.6826200e-023
  3.5765496e+002  2.4848800e-023
  3.5776183e+002  2.2721800e-023
  3.5786870e+002  2.0895100e-023
  3.5797557e+002  1.9306900e-023
  3.5808255e+002  1.7868000e-023
  3.5818942e+002  1.6829100e-023
  3.5829619e+002  1.5978300e-023
  3.5840306e+002  1.5218500e-023
  3.5850994e+002  1.4811100e-023
  3.5861681e+002  1.4917200e-023
  3.5872358e+002  1.6120000e-023
  3.5883045e+002  1.7566800e-023
  3.5893723e+002  2.0352800e-023
  3.5904400e+002  2.4492700e-023
  3.5915087e+002  3.2892200e-023
  3.5925764e+002  4.5695100e-023
  3.5936441e+002  5.7316200e-023
  3.5947119e+002  6.2165100e-023
  3.5957796e+002  6.1499300e-023
  3.5968473e+002  5.7742400e-023
  3.5979150e+002  5.3188300e-023
  3.5989818e+002  4.8722900e-023
  3.6000495e+002  4.5171900e-023
  3.6011162e+002  4.3134600e-023
  3.6021839e+002  4.0648100e-023
  3.6032507e+002  3.7555700e-023
  3.6043184e+002  3.3497700e-023
  3.6053851e+002  3.0025600e-023
  3.6064518e+002  2.6869800e-023
  3.6075186e+002  2.4070500e-023
  3.6085853e+002  2.2347400e-023
  3.6096520e+002  2.0872500e-023
  3.6107187e+002  1.9398800e-023
  3.6117855e+002  1.7724100e-023
  3.6128522e+002  1.6217400e-023
  3.6139189e+002  1.4286100e-023
  3.6149846e+002  1.3009500e-023
  3.6160514e+002  1.1735500e-023
  3.6171171e+002  1.0745800e-023
  3.6181838e+002  9.8212200e-024
  3.6192495e+002  9.2908100e-024
  3.6203153e+002  8.5648900e-024
  3.6213820e+002  8.0124400e-024
  3.6224477e+002  7.7142700e-024
  3.6235134e+002  7.6573600e-024
  3.6245792e+002  7.1257700e-024
  3.6256449e+002  6.8098000e-024
  3.6267106e+002  6.4874900e-024
  3.6277763e+002  6.2463400e-024
  3.6288421e+002  5.8772900e-024
  3.6299078e+002  6.1473800e-024
  3.6309725e+002  6.2466300e-024
  3.6320382e+002  6.2195100e-024
  3.6331040e+002  6.6749800e-024
  3.6341687e+002  7.1499200e-024
  3.6352344e+002  7.2011500e-024
  3.6362991e+002  7.0022400e-024
  3.6373649e+002  7.1253200e-024
  3.6384296e+002  6.6345300e-024
  3.6394943e+002  6.5380600e-024
  3.6405590e+002  6.3560500e-024
  3.6416248e+002  6.0981500e-024
  3.6426895e+002  6.3191400e-024
  3.6437542e+002  6.8363800e-024
  3.6448189e+002  8.0879800e-024
  3.6458837e+002  9.9085400e-024
  3.6469484e+002  1.1303900e-023
  3.6480131e+002  1.1645600e-023
  3.6490778e+002  1.1147200e-023
  3.6501426e+002  1.0256600e-023
  3.6512063e+002  9.7456400e-024
  3.6522710e+002  9.3104600e-024
  3.6533357e+002  9.2665600e-024
  3.6543995e+002  9.4194400e-024
  3.6554642e+002  9.4664300e-024
  3.6565289e+002  9.2223400e-024
  3.6575926e+002  8.4795200e-024
  3.6586574e+002  8.1306300e-024
  3.6597211e+002  7.4774000e-024
  3.6607848e+002  6.6818100e-024
  3.6618495e+002  5.9113000e-024
  3.6629133e+002  5.6275900e-024
  3.6639770e+002  5.3229500e-024
  3.6650417e+002  4.9151400e-024
  3.6661054e+002  4.6722000e-024
  3.6671692e+002  4.3986400e-024
  3.6682329e+002  3.9801400e-024
  3.6692966e+002  3.7021100e-024
  3.6703603e+002  3.6768100e-024
  3.6714241e+002  3.5912100e-024
  3.6724878e+002  3.7344200e-024
  3.6735515e+002  3.4580200e-024
  3.6746152e+002  3.5399800e-024
  3.6756790e+002  3.7310100e-024
  3.6767427e+002  3.6182300e-024
  3.6778064e+002  3.7768500e-024
  3.6788701e+002  4.1822100e-024
  3.6799339e+002  4.7463700e-024
  3.6809966e+002  5.3140800e-024
  3.6820603e+002  6.4071600e-024
  3.6831240e+002  7.3854900e-024
  3.6841868e+002  8.1186100e-024
  3.6852505e+002  8.1771500e-024
  3.6863142e+002  8.1340200e-024
  3.6873769e+002  7.9333800e-024
  3.6884407e+002  7.5871400e-024
  3.6895034e+002  7.2607500e-024
  3.6905671e+002  6.7045900e-024
  3.6916298e+002  6.2148800e-024
  3.6926935e+002  5.9443200e-024
  3.6937563e+002  5.6857500e-024
  3.6948200e+002  5.3444500e-024
  3.6958827e+002  5.1582700e-024
  3.6969464e+002  4.9061700e-024
  3.6980092e+002  4.6003900e-024
  3.6990719e+002  4.2003900e-024
  3.7001356e+002  4.0506100e-024
  3.7011983e+002  4.1163900e-024
  3.7022611e+002  4.0194700e-024
  3.7033248e+002  3.8657300e-024
  3.7043875e+002  3.4103900e-024
  3.7054502e+002  3.4060800e-024
  3.7065140e+002  3.3442200e-024
  3.7075767e+002  3.3347200e-024
  3.7086394e+002  3.2261800e-024
  3.7097021e+002  3.3951400e-024
  3.7107649e+002  3.0930500e-024
  3.7118286e+002  2.8653200e-024
  3.7128913e+002  3.1035200e-024
  3.7139540e+002  2.7332600e-024
  3.7150168e+002  2.6032700e-024
  3.7160795e+002  2.5960000e-024
  3.7171422e+002  2.5063600e-024
  3.7182049e+002  2.5785700e-024
  3.7192677e+002  2.3801500e-024
  3.7203314e+002  2.4972100e-024
  3.7213941e+002  2.5630100e-024
  3.7224568e+002  2.4726000e-024
  3.7235196e+002  2.3382500e-024
  3.7245823e+002  2.3064300e-024
  3.7256450e+002  2.1861900e-024
  3.7267077e+002  2.5232500e-024
  3.7277705e+002  2.6059000e-024
  3.7288332e+002  2.5790300e-024
  3.7298959e+002  2.5154800e-024
  3.7309586e+002  2.9387900e-024
  3.7320214e+002  3.3985500e-024
  3.7330841e+002  3.3943100e-024
  3.7341468e+002  3.7547500e-024
  3.7352095e+002  3.9591100e-024
  3.7362723e+002  4.1917200e-024
  3.7373350e+002  3.8095200e-024
  3.7383977e+002  3.8138600e-024
  3.7394604e+002  3.7546500e-024
  3.7405232e+002  3.6496600e-024
  3.7415859e+002  3.7962200e-024
  3.7426486e+002  4.0470100e-024
  3.7437113e+002  4.0057900e-024
  3.7447741e+002  4.1877300e-024
  3.7458368e+002  4.0353300e-024
  3.7468995e+002  3.5488100e-024
  3.7479622e+002  3.8398000e-024
  3.7490250e+002  3.6938400e-024
  3.7500877e+002  3.6933600e-024
  3.7511504e+002  3.3433000e-024
  3.7522131e+002  3.2933400e-024
  3.7532759e+002  3.3390900e-024
  3.7543386e+002  3.4824200e-024
  3.7554013e+002  3.3566300e-024
  3.7564640e+002  3.1121500e-024
  3.7575268e+002  3.2042000e-024
  3.7585905e+002  2.7684400e-024
  3.7596532e+002  2.9981400e-024
  3.7607159e+002  3.0861500e-024
  3.7617786e+002  3.0347100e-024
  3.7628414e+002  3.0020900e-024
  3.7639041e+002  3.0332600e-024
  3.7649668e+002  2.9710700e-024
  3.7660295e+002  3.1403700e-024
  3.7670923e+002  3.1091800e-024
  3.7681550e+002  2.7808700e-024
  3.7692187e+002  2.7380600e-024
  3.7702814e+002  2.8616500e-024
  3.7713442e+002  2.9558500e-024
  3.7724069e+002  2.6826300e-024
  3.7734696e+002  2.4477600e-024
  3.7745323e+002  2.6463800e-024
  3.7755961e+002  2.6654100e-024
  3.7766588e+002  2.4726700e-024
  3.7777215e+002  2.5146800e-024
  3.7787842e+002  2.5717900e-024
  3.7798480e+002  2.6588400e-024
  3.7809107e+002  2.6140700e-024
  3.7819734e+002  2.3915800e-024
  3.7830371e+002  2.6123300e-024
  3.7840999e+002  2.7815400e-024
  3.7851626e+002  2.8716800e-024
  3.7862263e+002  2.7726800e-024
  3.7872890e+002  3.0650700e-024
  3.7883518e+002  2.9454400e-024
  3.7894155e+002  3.0766000e-024
  3.7904782e+002  3.2271400e-024
  3.7915419e+002  3.0767200e-024
  3.7926046e+002  3.1263900e-024
  3.7936684e+002  3.1803800e-024
  3.7947311e+002  3.3311100e-024
  3.7957938e+002  3.3366300e-024
  3.7968575e+002  3.3085200e-024
  3.7979213e+002  3.1615700e-024
  3.7989840e+002  3.2681700e-024
  3.8000477e+002  3.4166700e-024
  3.8011104e+002  3.3067400e-024
  3.8021742e+002  3.6974200e-024
  3.8032379e+002  3.5164600e-024
  3.8043006e+002  3.2474000e-024
  3.8053643e+002  3.5650800e-024
  3.8064281e+002  3.7692300e-024
  3.8074908e+002  3.8355500e-024
  3.8085545e+002  3.8779200e-024
  3.8096182e+002  3.8872400e-024
  3.8106820e+002  3.8220000e-024
  3.8117447e+002  4.0894700e-024
  3.8128084e+002  4.2187700e-024
  3.8138721e+002  4.0784900e-024
  3.8149359e+002  4.1761500e-024
  3.8159996e+002  3.9441800e-024
  3.8170633e+002  4.1504000e-024
  3.8181270e+002  4.2085600e-024
  3.8191907e+002  3.9795600e-024
  3.8202545e+002  4.5360400e-024
  3.8213182e+002  4.1816700e-024
  3.8223819e+002  4.2630200e-024
  3.8234456e+002  4.3715200e-024
  3.8245094e+002  4.4523000e-024
  3.8255731e+002  4.5801600e-024
  3.8266368e+002  4.5514200e-024
  3.8277005e+002  4.6497100e-024
  3.8287643e+002  4.4380400e-024
  3.8298290e+002  4.3021000e-024
  3.8308927e+002  4.4877100e-024
  3.8319564e+002  4.3618500e-024
  3.8330202e+002  4.4144600e-024
  3.8340849e+002  4.0456000e-024
  3.8351486e+002  4.0204900e-024
  3.8362123e+002  4.0928200e-024
  3.8372770e+002  4.1585400e-024
  3.8383408e+002  4.1587900e-024
  3.8394055e+002  4.3244000e-024
  3.8404692e+002  4.2536100e-024
  3.8415329e+002  3.9678200e-024
  3.8425977e+002  4.1035700e-024
  3.8436624e+002  3.8628600e-024
  3.8447261e+002  4.0322000e-024
  3.8457908e+002  4.1692200e-024
  3.8468546e+002  4.1880100e-024
  3.8479193e+002  4.1886500e-024
  3.8489840e+002  4.2533800e-024
  3.8500477e+002  4.0100300e-024
  3.8511124e+002  3.9281000e-024
  3.8521772e+002  3.7513300e-024
  3.8532409e+002  3.9687200e-024
  3.8543056e+002  3.9411200e-024
  3.8553703e+002  4.0732000e-024
  3.8564351e+002  4.1774600e-024
  3.8574998e+002  4.3448200e-024
  3.8585645e+002  4.3355000e-024
  3.8596292e+002  4.3560500e-024
  3.8606940e+002  4.2554900e-024
  3.8617587e+002  4.5210800e-024
  3.8628234e+002  4.5602200e-024
  3.8638881e+002  4.7645900e-024
  3.8649528e+002  4.7489300e-024
  3.8660176e+002  4.7820400e-024
  3.8670823e+002  4.9427000e-024
  3.8681470e+002  4.8230000e-024
  3.8692117e+002  5.0942400e-024
  3.8702765e+002  5.0429700e-024
  3.8713422e+002  4.7509400e-024
  3.8724069e+002  5.1224700e-024
  3.8734716e+002  5.0490700e-024
  3.8745374e+002  5.0548700e-024
  3.8756021e+002  5.1638200e-024
  3.8766668e+002  5.2380600e-024
  3.8777325e+002  5.3032000e-024
  3.8787972e+002  5.0770400e-024
  3.8798630e+002  5.1461800e-024
  3.8809277e+002  5.4637000e-024
  3.8819924e+002  5.6082200e-024
  3.8830581e+002  5.6086100e-024
  3.8841239e+002  5.6289000e-024
  3.8851886e+002  5.6263400e-024
  3.8862543e+002  5.8772600e-024
  3.8873190e+002  5.7892400e-024
  3.8883848e+002  5.8348300e-024
  3.8894505e+002  5.9300600e-024
  3.8905152e+002  5.7632700e-024
  3.8915809e+002  5.9753600e-024
  3.8926466e+002  5.9714300e-024
  3.8937124e+002  6.2196700e-024
  3.8947781e+002  6.1577500e-024
  3.8958428e+002  6.3248500e-024
  3.8969085e+002  6.1169400e-024
  3.8979743e+002  6.3198400e-024
  3.8990400e+002  6.3477900e-024
  3.9001057e+002  6.5580300e-024
  3.9011714e+002  6.2411100e-024
  3.9022371e+002  6.2982100e-024
  3.9033029e+002  6.3525700e-024
  3.9043686e+002  6.2287300e-024
  3.9054343e+002  6.5362400e-024
  3.9065000e+002  6.6063900e-024
  3.9075658e+002  6.2878400e-024
  3.9086315e+002  6.2914800e-024
  3.9096972e+002  6.7903100e-024
  3.9107639e+002  6.7614700e-024
  3.9118296e+002  6.5410200e-024
  3.9128954e+002  6.4133200e-024
  3.9139611e+002  6.6671700e-024
  3.9150268e+002  6.7912000e-024
  3.9160935e+002  7.0615100e-024
  3.9171593e+002  6.8956500e-024
  3.9182250e+002  6.7312300e-024
  3.9192917e+002  6.9271100e-024
  3.9203574e+002  7.1440500e-024
  3.9214231e+002  6.9436000e-024
  3.9224899e+002  7.0315300e-024
  3.9235556e+002  7.3357800e-024
  3.9246223e+002  7.2568200e-024
  3.9256880e+002  7.2683400e-024
  3.9267548e+002  7.3912900e-024
  3.9278205e+002  7.2180600e-024
  3.9288872e+002  7.4010200e-024
  3.9299529e+002  8.1120700e-024
  3.9310196e+002  7.5630900e-024
  3.9320854e+002  7.8510100e-024
  3.9331521e+002  8.3010600e-024
  3.9342188e+002  7.8309700e-024
  3.9352845e+002  8.3084000e-024
  3.9363513e+002  8.7576500e-024
  3.9374170e+002  8.7984800e-024
  3.9384837e+002  8.9224600e-024
  3.9395504e+002  9.0065800e-024
  3.9406161e+002  9.3559800e-024
  3.9416829e+002  9.5191300e-024
  3.9427496e+002  9.7081500e-024
  3.9438163e+002  9.7815600e-024
  3.9448820e+002  9.8812300e-024
  3.9459488e+002  1.0107700e-023
  3.9470155e+002  1.0315300e-023
  3.9480822e+002  1.0624700e-023
  3.9491489e+002  1.0516500e-023
  3.9502146e+002  1.0316800e-023
  3.9512814e+002  1.0498500e-023
  3.9523481e+002  1.0683500e-023
  3.9534148e+002  1.0814300e-023
  3.9544815e+002  1.1006300e-023
  3.9555483e+002  1.0895100e-023
  3.9566140e+002  1.1126900e-023
  3.9576807e+002  1.0709500e-023
  3.9587474e+002  1.1034200e-023
  3.9598141e+002  1.0984200e-023
  3.9608809e+002  1.0937100e-023
  3.9619476e+002  1.0825500e-023
  3.9630143e+002  1.0746400e-023
  3.9640810e+002  1.0671300e-023
  3.9654287e+002  1.0570900e-023
  3.9679080e+002  1.0453200e-023
  3.9703874e+002  1.0001000e-023
  3.9728657e+002  9.7758800e-024
  3.9753431e+002  9.8356400e-024
  3.9778214e+002  9.6245100e-024
  3.9802978e+002  9.2330300e-024
  3.9827752e+002  9.7965900e-024
  3.9852505e+002  9.7972000e-024
  3.9877269e+002  9.9510000e-024
  3.9902022e+002  1.0085200e-023
  3.9926766e+002  9.9312500e-024
  3.9951509e+002  1.0458200e-023
  3.9976253e+002  1.0947800e-023
  4.0000986e+002  1.1442000e-023
  4.0025720e+002  1.1758900e-023
  4.0050443e+002  1.2043400e-023
  4.0075167e+002  1.2387100e-023
  4.0099881e+002  1.2975400e-023
  4.0124594e+002  1.3558400e-023
  4.0149308e+002  1.3745800e-023
  4.0174011e+002  1.4296500e-023
  4.0198705e+002  1.4554100e-023
  4.0223398e+002  1.4648500e-023
  4.0248092e+002  1.4856400e-023
  4.0272775e+002  1.5012400e-023
  4.0297459e+002  1.5013200e-023
  4.0322143e+002  1.4958000e-023
  4.0346806e+002  1.4632400e-023
  4.0371480e+002  1.4834500e-023
  4.0396143e+002  1.4644000e-023
  4.0420807e+002  1.4621800e-023
  4.0445460e+002  1.4583200e-023
  4.0470104e+002  1.4751400e-023
  4.0494757e+002  1.4595700e-023
  4.0519391e+002  1.4889100e-023
  4.0544035e+002  1.5133500e-023
  4.0568668e+002  1.5488700e-023
  4.0593292e+002  1.6113400e-023
  4.0617915e+002  1.6390400e-023
  4.0642539e+002  1.6917200e-023
  4.0667152e+002  1.7783800e-023
  4.0691756e+002  1.8700300e-023
  4.0716370e+002  1.9913200e-023
  4.0740973e+002  2.0604600e-023
  4.0765567e+002  2.1887900e-023
  4.0790160e+002  2.2830200e-023
  4.0814744e+002  2.3457800e-023
  4.0839327e+002  2.4094200e-023
  4.0863911e+002  2.5190600e-023
  4.0888485e+002  2.5637100e-023
  4.0913058e+002  2.6150300e-023
  4.0937622e+002  2.6644800e-023
  4.0962185e+002  2.6944200e-023
  4.0986739e+002  2.7362400e-023
  4.1011292e+002  2.7189700e-023
  4.1035846e+002  2.7549500e-023
  4.1060390e+002  2.7654100e-023
  4.1084923e+002  2.7506900e-023
  4.1109457e+002  2.7127100e-023
  4.1133990e+002  2.6787300e-023
  4.1158514e+002  2.6481300e-023
  4.1183037e+002  2.5870800e-023
  4.1207561e+002  2.5609800e-023
  4.1232075e+002  2.5335300e-023
  4.1256578e+002  2.4722900e-023
  4.1281082e+002  2.4664600e-023
  4.1305585e+002  2.4465300e-023
  4.1330079e+002  2.4567800e-023
  4.1354573e+002  2.4676600e-023
  4.1379056e+002  2.5062300e-023
  4.1403540e+002  2.5275000e-023
  4.1428023e+002  2.6063700e-023
  4.1452497e+002  2.6568700e-023
  4.1476961e+002  2.7555700e-023
  4.1501434e+002  2.8697100e-023
  4.1525888e+002  2.9743300e-023
  4.1550351e+002  3.0693100e-023
  4.1574805e+002  3.1591200e-023
  4.1599248e+002  3.2760800e-023
  4.1623692e+002  3.3894300e-023
  4.1648136e+002  3.4820400e-023
  4.1672569e+002  3.5550000e-023
  4.1696993e+002  3.6102300e-023
  4.1721426e+002  3.6740300e-023
  4.1745850e+002  3.7223600e-023
  4.1770264e+002  3.7456900e-023
  4.1794677e+002  3.7472800e-023
  4.1819081e+002  3.7445000e-023
  4.1843495e+002  3.7460400e-023
  4.1867888e+002  3.7276900e-023
  4.1892292e+002  3.6759500e-023
  4.1916675e+002  3.6811100e-023
  4.1941069e+002  3.6543800e-023
  4.1965453e+002  3.6786300e-023
  4.1989826e+002  3.6724400e-023
  4.2014200e+002  3.7374900e-023
  4.2038573e+002  3.7804900e-023
  4.2062937e+002  3.8433700e-023
  4.2087301e+002  3.9220400e-023
  4.2111664e+002  4.0566100e-023
  4.2136018e+002  4.1813200e-023
  4.2160361e+002  4.3808300e-023
  4.2184705e+002  4.5693500e-023
  4.2209049e+002  4.7489600e-023
  4.2233382e+002  4.9405000e-023
  4.2257716e+002  5.1625800e-023
  4.2282050e+002  5.3870100e-023
  4.2306373e+002  5.5984000e-023
  4.2330687e+002  5.8306800e-023
  4.2355010e+002  6.0504900e-023
  4.2379314e+002  6.2726600e-023
  4.2403628e+002  6.5020700e-023
  4.2427931e+002  6.6771500e-023
  4.2452225e+002  6.8469400e-023
  4.2476519e+002  6.9675300e-023
  4.2500812e+002  7.0882800e-023
  4.2525096e+002  7.1776400e-023
  4.2549379e+002  7.2260000e-023
  4.2573663e+002  7.2500900e-023
  4.2597937e+002  7.2266100e-023
  4.2622200e+002  7.2091000e-023
  4.2646474e+002  7.1812500e-023
  4.2670728e+002  7.1009800e-023
  4.2694991e+002  6.9855500e-023
  4.2719245e+002  6.8910600e-023
  4.2743488e+002  6.7984100e-023
  4.2767732e+002  6.6885400e-023
  4.2791976e+002  6.5850500e-023
  4.2816209e+002  6.4649000e-023
  4.2840443e+002  6.3794700e-023
  4.2864677e+002  6.2967500e-023
  4.2888900e+002  6.2574100e-023
  4.2913124e+002  6.2494700e-023
  4.2937338e+002  6.1970800e-023
  4.2961551e+002  6.2590400e-023
  4.2985755e+002  6.3680200e-023
  4.3009959e+002  6.4468200e-023
  4.3034162e+002  6.5915600e-023
  4.3058356e+002  6.7766200e-023
  4.3082549e+002  6.9884900e-023
  4.3106743e+002  7.1977100e-023
  4.3130927e+002  7.4246900e-023
  4.3155100e+002  7.6698300e-023
  4.3179284e+002  7.9053700e-023
  4.3203448e+002  8.1188900e-023
  4.3227621e+002  8.3337600e-023
  4.3251785e+002  8.5136600e-023
  4.3275949e+002  8.6445900e-023
  4.3300102e+002  8.7565300e-023
  4.3324256e+002  8.8303200e-023
  4.3348400e+002  8.8440400e-023
  4.3372543e+002  8.8657700e-023
  4.3396687e+002  8.8132500e-023
  4.3420821e+002  8.7958700e-023
  4.3444954e+002  8.7241800e-023
  4.3469088e+002  8.6839200e-023
  4.3493212e+002  8.6376000e-023
  4.3517335e+002  8.5898700e-023
  4.3541449e+002  8.5608400e-023
  4.3565563e+002  8.5279500e-023
  4.3589666e+002  8.5210000e-023
  4.3613780e+002  8.6082500e-023
  4.3637873e+002  8.7001300e-023
  4.3661977e+002  8.8286000e-023
  4.3686071e+002  9.0024400e-023
  4.3710154e+002  9.1654000e-023
  4.3734248e+002  9.4203000e-023
  4.3758322e+002  9.7726600e-023
  4.3782405e+002  1.0136400e-022
  4.3806479e+002  1.0491600e-022
  4.3830553e+002  1.0936200e-022
  4.3854616e+002  1.1348300e-022
  4.3878680e+002  1.1809700e-022
  4.3902744e+002  1.2293400e-022
  4.3926798e+002  1.2701800e-022
  4.3950851e+002  1.3201400e-022
  4.3974895e+002  1.3684400e-022
  4.3998939e+002  1.4163900e-022
  4.4022982e+002  1.4647300e-022
  4.4047016e+002  1.5055500e-022
  4.4071050e+002  1.5489100e-022
  4.4095083e+002  1.5904800e-022
  4.4119107e+002  1.6313900e-022
  4.4143131e+002  1.6658700e-022
  4.4167144e+002  1.6987100e-022
  4.4191158e+002  1.7218500e-022
  4.4215172e+002  1.7464700e-022
  4.4239175e+002  1.7638000e-022
  4.4263179e+002  1.7751700e-022
  4.4287183e+002  1.7801400e-022
  4.4311176e+002  1.7774700e-022
  4.4335170e+002  1.7691500e-022
  4.4359154e+002  1.7534900e-022
  4.4383147e+002  1.7338800e-022
  4.4407121e+002  1.7100400e-022
  4.4431105e+002  1.6803500e-022
  4.4455078e+002  1.6533000e-022
  4.4479052e+002  1.6259200e-022
  4.4503016e+002  1.5929000e-022
  4.4526980e+002  1.5648200e-022
  4.4550943e+002  1.5356700e-022
  4.4574897e+002  1.5119300e-022
  4.4598851e+002  1.4925900e-022
  4.4622794e+002  1.4764300e-022
  4.4646748e+002  1.4674400e-022
  4.4670692e+002  1.4626300e-022
  4.4694625e+002  1.4654500e-022
  4.4718559e+002  1.4792700e-022
  4.4742493e+002  1.4917600e-022
  4.4766426e+002  1.5198100e-022
  4.4790350e+002  1.5492300e-022
  4.4814264e+002  1.5843000e-022
  4.4838188e+002  1.6265300e-022
  4.4862101e+002  1.6709700e-022
  4.4886015e+002  1.7176600e-022
  4.4909919e+002  1.7684300e-022
  4.4933822e+002  1.8126300e-022
  4.4957726e+002  1.8598200e-022
  4.4981620e+002  1.9059600e-022
  4.5005513e+002  1.9431000e-022
  4.5029407e+002  1.9690700e-022
  4.5053291e+002  1.9893800e-022
  4.5077175e+002  2.0042100e-022
  4.5101058e+002  2.0128400e-022
  4.5124932e+002  2.0134400e-022
  4.5148806e+002  2.0099900e-022
  4.5172679e+002  2.0036200e-022
  4.5196543e+002  1.9969300e-022
  4.5220407e+002  1.9859100e-022
  4.5244271e+002  1.9765600e-022
  4.5268134e+002  1.9638200e-022
  4.5291988e+002  1.9531100e-022
  4.5315832e+002  1.9454700e-022
  4.5339685e+002  1.9380600e-022
  4.5363529e+002  1.9401200e-022
  4.5387363e+002  1.9461200e-022
  4.5411207e+002  1.9605500e-022
  4.5435040e+002  1.9848800e-022
  4.5458874e+002  2.0129000e-022
  4.5482698e+002  2.0459600e-022
  4.5506521e+002  2.0906900e-022
  4.5530345e+002  2.1421700e-022
  4.5554159e+002  2.1984200e-022
  4.5577983e+002  2.2625600e-022
  4.5601786e+002  2.3250200e-022
  4.5625600e+002  2.4053300e-022
  4.5649404e+002  2.4888800e-022
  4.5673207e+002  2.5743800e-022
  4.5697011e+002  2.6600900e-022
  4.5720805e+002  2.7517900e-022
  4.5744599e+002  2.8418600e-022
  4.5768392e+002  2.9303900e-022
  4.5792176e+002  3.0251400e-022
  4.5815960e+002  3.1205600e-022
  4.5839743e+002  3.2125000e-022
  4.5863517e+002  3.3080100e-022
  4.5887291e+002  3.3984300e-022
  4.5911065e+002  3.4894800e-022
  4.5934838e+002  3.5786800e-022
  4.5958602e+002  3.6649100e-022
  4.5982366e+002  3.7478900e-022
  4.6006120e+002  3.8322700e-022
  4.6029883e+002  3.9004100e-022
  4.6053637e+002  3.9687200e-022
  4.6077391e+002  4.0225700e-022
  4.6101134e+002  4.0719500e-022
  4.6124878e+002  4.1036000e-022
  4.6148622e+002  4.1168100e-022
  4.6172366e+002  4.1282600e-022
  4.6196099e+002  4.1211800e-022
  4.6219833e+002  4.1026800e-022
  4.6243567e+002  4.0721800e-022
  4.6267291e+002  4.0332200e-022
  4.6291014e+002  3.9870900e-022
  4.6314738e+002  3.9306900e-022
  4.6338462e+002  3.8714800e-022
  4.6362176e+002  3.8066800e-022
  4.6385889e+002  3.7409000e-022
  4.6409603e+002  3.6781200e-022
  4.6433307e+002  3.6091700e-022
  4.6457010e+002  3.5518800e-022
  4.6480714e+002  3.5015000e-022
  4.6504418e+002  3.4542200e-022
  4.6528112e+002  3.4193500e-022
  4.6551805e+002  3.3931900e-022
  4.6575499e+002  3.3719500e-022
  4.6599183e+002  3.3647400e-022
  4.6622877e+002  3.3741800e-022
  4.6646560e+002  3.3909000e-022
  4.6670234e+002  3.4220000e-022
  4.6693918e+002  3.4637600e-022
  4.6717592e+002  3.5171700e-022
  4.6741265e+002  3.5754800e-022
  4.6764929e+002  3.6451000e-022
  4.6788603e+002  3.7153100e-022
  4.6812267e+002  3.7873800e-022
  4.6835930e+002  3.8569900e-022
  4.6859584e+002  3.9232900e-022
  4.6883248e+002  3.9816400e-022
  4.6906902e+002  4.0390600e-022
  4.6930555e+002  4.0869800e-022
  4.6954199e+002  4.1296000e-022
  4.6977853e+002  4.1601600e-022
  4.7001497e+002  4.1872200e-022
  4.7025140e+002  4.2099000e-022
  4.7048774e+002  4.2211000e-022
  4.7072408e+002  4.2285900e-022
  4.7096042e+002  4.2257900e-022
  4.7119675e+002  4.2251200e-022
  4.7143309e+002  4.2214800e-022
  4.7166933e+002  4.2153600e-022
  4.7190557e+002  4.2085000e-022
  4.7214180e+002  4.2048600e-022
  4.7237804e+002  4.2004900e-022
  4.7261418e+002  4.1997500e-022
  4.7285032e+002  4.2059400e-022
  4.7308645e+002  4.2224100e-022
  4.7332259e+002  4.2515300e-022
  4.7355863e+002  4.2757200e-022
  4.7379467e+002  4.3016200e-022
  4.7403070e+002  4.3370600e-022
  4.7426674e+002  4.3872100e-022
  4.7450278e+002  4.4452800e-022
  4.7473872e+002  4.5233800e-022
  4.7497465e+002  4.6041200e-022
  4.7521059e+002  4.7040100e-022
  4.7544643e+002  4.8100200e-022
  4.7568237e+002  4.9307700e-022
  4.7591820e+002  5.0400400e-022
  4.7615404e+002  5.1822900e-022
  4.7638978e+002  5.3203000e-022
  4.7662562e+002  5.4742600e-022
  4.7686136e+002  5.6086700e-022
  4.7709709e+002  5.7621500e-022
  4.7733283e+002  5.9360500e-022
  4.7756857e+002  6.0816600e-022
  4.7780421e+002  6.2477700e-022
  4.7803984e+002  6.4112800e-022
  4.7827548e+002  6.5616000e-022
  4.7851112e+002  6.7433200e-022
  4.7874666e+002  6.8953000e-022
  4.7898229e+002  7.0752600e-022
  4.7921783e+002  7.2464500e-022
  4.7945337e+002  7.4143600e-022
  4.7968891e+002  7.5878800e-022
  4.7992434e+002  7.7554600e-022
  4.8015978e+002  7.8961500e-022
  4.8039532e+002  8.0302700e-022
  4.8063066e+002  8.1959100e-022
  4.8086610e+002  8.3216400e-022
  4.8110153e+002  8.4117300e-022
  4.8133687e+002  8.5140100e-022
  4.8157221e+002  8.5753300e-022
  4.8180755e+002  8.6487000e-022
  4.8204288e+002  8.6934900e-022
  4.8227812e+002  8.7029400e-022
  4.8251346e+002  8.7224600e-022
  4.8274870e+002  8.6958200e-022
  4.8298393e+002  8.6539000e-022
  4.8321917e+002  8.6382100e-022
  4.8345431e+002  8.5628800e-022
  4.8368955e+002  8.5104400e-022
  4.8392469e+002  8.4283800e-022
  4.8415982e+002  8.3427600e-022
  4.8439496e+002  8.2710700e-022
  4.8463010e+002  8.1758100e-022
  4.8486514e+002  8.0825600e-022
  4.8510027e+002  7.9870700e-022
  4.8533531e+002  7.9109500e-022
  4.8557035e+002  7.8168400e-022
  4.8580539e+002  7.7358100e-022
  4.8604042e+002  7.6730200e-022
  4.8627536e+002  7.5942600e-022
  4.8651030e+002  7.5650700e-022
  4.8674534e+002  7.5350500e-022
  4.8698028e+002  7.5129700e-022
  4.8721511e+002  7.5189300e-022
  4.8745005e+002  7.5159700e-022
  4.8768499e+002  7.5256000e-022
  4.8791983e+002  7.5575400e-022
  4.8815466e+002  7.6018800e-022
  4.8838950e+002  7.6500900e-022
  4.8862434e+002  7.7138000e-022
  4.8885918e+002  7.8077500e-022
  4.8909392e+002  7.8980600e-022
  4.8932875e+002  7.9731300e-022
  4.8956349e+002  8.0666700e-022
  4.8979823e+002  8.1703500e-022
  4.9003297e+002  8.2417500e-022
  4.9026770e+002  8.3178400e-022
  4.9050244e+002  8.3807500e-022
  4.9073708e+002  8.4558800e-022
  4.9097182e+002  8.5104000e-022
  4.9120646e+002  8.5615800e-022
  4.9144109e+002  8.6016400e-022
  4.9167573e+002  8.6676800e-022
  4.9191037e+002  8.6901100e-022
  4.9214501e+002  8.6889600e-022
  4.9237954e+002  8.7056800e-022
  4.9261418e+002  8.7507600e-022
  4.9284872e+002  8.7592100e-022
  4.9308326e+002  8.7602600e-022
  4.9331780e+002  8.7696100e-022
  4.9355233e+002  8.7841000e-022
  4.9378687e+002  8.8146300e-022
  4.9402131e+002  8.8362900e-022
  4.9425585e+002  8.8344700e-022
  4.9449028e+002  8.8723400e-022
  4.9472472e+002  8.9130100e-022
  4.9495926e+002  8.9585400e-022
  4.9519370e+002  9.0148500e-022
  4.9542814e+002  9.0812700e-022
  4.9566247e+002  9.1452300e-022
  4.9589691e+002  9.2101600e-022
  4.9613135e+002  9.3243700e-022
  4.9636569e+002  9.4085900e-022
  4.9660003e+002  9.5293700e-022
  4.9683446e+002  9.6695500e-022
  4.9706880e+002  9.7951900e-022
  4.9730314e+002  9.9427300e-022
  4.9753748e+002  1.0118500e-021
  4.9777171e+002  1.0272300e-021
  4.9800605e+002  1.0455600e-021
  4.9824039e+002  1.0640900e-021
  4.9847463e+002  1.0835100e-021
  4.9870887e+002  1.1034300e-021
  4.9894320e+002  1.1257600e-021
  4.9917744e+002  1.1472900e-021
  4.9941168e+002  1.1694200e-021
  4.9964592e+002  1.1891200e-021
  4.9988015e+002  1.2116800e-021
  5.0011439e+002  1.2358000e-021
  5.0034853e+002  1.2601100e-021
  5.0058277e+002  1.2842900e-021
  5.0081691e+002  1.3087500e-021
  5.0105114e+002  1.3331700e-021
  5.0128528e+002  1.3563100e-021
  5.0151942e+002  1.3824700e-021
  5.0175366e+002  1.4050100e-021
  5.0198780e+002  1.4301700e-021
  5.0222193e+002  1.4519100e-021
  5.0245607e+002  1.4740300e-021
  5.0269021e+002  1.4962700e-021
  5.0292425e+002  1.5169300e-021
  5.0315838e+002  1.5370200e-021
  5.0339252e+002  1.5569400e-021
  5.0362656e+002  1.5725200e-021
  5.0386070e+002  1.5889700e-021
  5.0409474e+002  1.6044600e-021
  5.0432877e+002  1.6173600e-021
  5.0456291e+002  1.6263800e-021
  5.0479695e+002  1.6386800e-021
  5.0503099e+002  1.6470200e-021
  5.0526503e+002  1.6538300e-021
  5.0549906e+002  1.6568300e-021
  5.0573310e+002  1.6574300e-021
  5.0596714e+002  1.6586700e-021
  5.0620118e+002  1.6570800e-021
  5.0643521e+002  1.6553600e-021
  5.0666915e+002  1.6516300e-021
  5.0690319e+002  1.6458500e-021
  5.0713723e+002  1.6407900e-021
  5.0737117e+002  1.6340800e-021
  5.0760520e+002  1.6269700e-021
  5.0783914e+002  1.6191400e-021
  5.0807308e+002  1.6111300e-021
  5.0830712e+002  1.6025900e-021
  5.0854106e+002  1.5919200e-021
  5.0877499e+002  1.5842300e-021
  5.0900903e+002  1.5765900e-021
  5.0924297e+002  1.5711600e-021
  5.0947691e+002  1.5675300e-021
  5.0971084e+002  1.5601500e-021
  5.0994478e+002  1.5536100e-021
  5.1017872e+002  1.5489700e-021
  5.1041266e+002  1.5484900e-021
  5.1064660e+002  1.5456000e-021
  5.1088053e+002  1.5459500e-021
  5.1111447e+002  1.5435000e-021
  5.1134841e+002  1.5473000e-021
  5.1158235e+002  1.5501500e-021
  5.1181618e+002  1.5537700e-021
  5.1205012e+002  1.5592000e-021
  5.1228406e+002  1.5665500e-021
  5.1251800e+002  1.5735600e-021
  5.1275184e+002  1.5834800e-021
  5.1298577e+002  1.5891200e-021
  5.1321971e+002  1.5976300e-021
  5.1345365e+002  1.6075000e-021
  5.1368749e+002  1.6186900e-021
  5.1392143e+002  1.6275100e-021
  5.1415526e+002  1.6389700e-021
  5.1438920e+002  1.6477200e-021
  5.1462314e+002  1.6560300e-021
  5.1485698e+002  1.6660900e-021
  5.1509091e+002  1.6760500e-021
  5.1532475e+002  1.6830800e-021
  5.1555869e+002  1.6915000e-021
  5.1579253e+002  1.6988200e-021
  5.1602647e+002  1.7074800e-021
  5.1626040e+002  1.7149600e-021
  5.1649424e+002  1.7231200e-021
  5.1672818e+002  1.7305900e-021
  5.1696202e+002  1.7377400e-021
  5.1719595e+002  1.7455200e-021
  5.1742979e+002  1.7525300e-021
  5.1766373e+002  1.7595200e-021
  5.1789757e+002  1.7660800e-021
  5.1813151e+002  1.7729200e-021
  5.1836544e+002  1.7805400e-021
  5.1859928e+002  1.7878300e-021
  5.1883322e+002  1.7946800e-021
  5.1906716e+002  1.8015000e-021
  5.1930099e+002  1.8110100e-021
  5.1953493e+002  1.8199400e-021
  5.1976887e+002  1.8288900e-021
  5.2000271e+002  1.8395500e-021
  5.2023665e+002  1.8496500e-021
  5.2047058e+002  1.8605600e-021
  5.2070442e+002  1.8695200e-021
  5.2093836e+002  1.8829000e-021
  5.2117230e+002  1.8982100e-021
  5.2140623e+002  1.9103100e-021
  5.2164017e+002  1.9234500e-021
  5.2187411e+002  1.9392000e-021
  5.2210805e+002  1.9559800e-021
  5.2234199e+002  1.9720600e-021
  5.2257592e+002  1.9888700e-021
  5.2280986e+002  2.0079500e-021
  5.2304380e+002  2.0255200e-021
  5.2327774e+002  2.0454400e-021
  5.2351167e+002  2.0656400e-021
  5.2374561e+002  2.0849800e-021
  5.2397955e+002  2.1058000e-021
  5.2421359e+002  2.1265800e-021
  5.2444753e+002  2.1501400e-021
  5.2468146e+002  2.1721500e-021
  5.2491550e+002  2.1943800e-021
  5.2514944e+002  2.2171700e-021
  5.2538348e+002  2.2421700e-021
  5.2561741e+002  2.2650500e-021
  5.2585145e+002  2.2886000e-021
  5.2608549e+002  2.3130300e-021
  5.2631943e+002  2.3350400e-021
  5.2655347e+002  2.3599600e-021
  5.2678750e+002  2.3843600e-021
  5.2702154e+002  2.4079200e-021
  5.2725558e+002  2.4328900e-021
  5.2748962e+002  2.4542800e-021
  5.2772365e+002  2.4789000e-021
  5.2795769e+002  2.5017900e-021
  5.2819173e+002  2.5240300e-021
  5.2842577e+002  2.5451500e-021
  5.2865990e+002  2.5659900e-021
  5.2889394e+002  2.5890800e-021
  5.2912808e+002  2.6110800e-021
  5.2936212e+002  2.6308800e-021
  5.2959626e+002  2.6496400e-021
  5.2983029e+002  2.6707100e-021
  5.3006443e+002  2.6906700e-021
  5.3029857e+002  2.7067200e-021
  5.3053271e+002  2.7252700e-021
  5.3076684e+002  2.7425300e-021
  5.3100098e+002  2.7594200e-021
  5.3123512e+002  2.7730800e-021
  5.3146926e+002  2.7852700e-021
  5.3170349e+002  2.7970200e-021
  5.3193763e+002  2.8097900e-021
  5.3217187e+002  2.8177800e-021
  5.3240601e+002  2.8271600e-021
  5.3264024e+002  2.8367000e-021
  5.3287448e+002  2.8441300e-021
  5.3310872e+002  2.8478800e-021
  5.3334296e+002  2.8543200e-021
  5.3357720e+002  2.8581000e-021
  5.3381143e+002  2.8603700e-021
  5.3404567e+002  2.8616100e-021
  5.3427991e+002  2.8614600e-021
  5.3451425e+002  2.8608100e-021
  5.3474848e+002  2.8596000e-021
  5.3498282e+002  2.8582000e-021
  5.3521716e+002  2.8569300e-021
  5.3545150e+002  2.8533300e-021
  5.3568583e+002  2.8547900e-021
  5.3592017e+002  2.8535100e-021
  5.3615451e+002  2.8513600e-021
  5.3638885e+002  2.8511900e-021
  5.3662328e+002  2.8500600e-021
  5.3685762e+002  2.8505500e-021
  5.3709206e+002  2.8522000e-021
  5.3732640e+002  2.8528200e-021
  5.3756083e+002  2.8547700e-021
  5.3779527e+002  2.8584900e-021
  5.3802971e+002  2.8618100e-021
  5.3826425e+002  2.8665100e-021
  5.3849868e+002  2.8716000e-021
  5.3873312e+002  2.8789000e-021
  5.3896766e+002  2.8879000e-021
  5.3920220e+002  2.8976700e-021
  5.3943663e+002  2.9059000e-021
  5.3967117e+002  2.9148700e-021
  5.3990571e+002  2.9280700e-021
  5.4014035e+002  2.9402300e-021
  5.4037488e+002  2.9537400e-021
  5.4060952e+002  2.9644800e-021
  5.4084406e+002  2.9788600e-021
  5.4107870e+002  2.9941200e-021
  5.4131333e+002  3.0074700e-021
  5.4154797e+002  3.0201200e-021
  5.4178261e+002  3.0384700e-021
  5.4201725e+002  3.0497500e-021
  5.4225198e+002  3.0652500e-021
  5.4248662e+002  3.0798900e-021
  5.4272136e+002  3.0949700e-021
  5.4295610e+002  3.1082700e-021
  5.4319083e+002  3.1219800e-021
  5.4342557e+002  3.1360300e-021
  5.4366031e+002  3.1511000e-021
  5.4389515e+002  3.1593600e-021
  5.4412988e+002  3.1742400e-021
  5.4436472e+002  3.1872000e-021
  5.4459956e+002  3.1982400e-021
  5.4483440e+002  3.2068500e-021
  5.4506923e+002  3.2179500e-021
  5.4530417e+002  3.2277100e-021
  5.4553901e+002  3.2370300e-021
  5.4577394e+002  3.2435400e-021
  5.4600888e+002  3.2489300e-021
  5.4624382e+002  3.2608900e-021
  5.4647876e+002  3.2697000e-021
  5.4671369e+002  3.2769100e-021
  5.4694873e+002  3.2868000e-021
  5.4718377e+002  3.2944200e-021
  5.4741871e+002  3.3007700e-021
  5.4765374e+002  3.3065500e-021
  5.4788888e+002  3.3163400e-021
  5.4812392e+002  3.3231000e-021
  5.4835896e+002  3.3298300e-021
  5.4859409e+002  3.3350000e-021
  5.4882923e+002  3.3403900e-021
  5.4906437e+002  3.3474100e-021
  5.4929950e+002  3.3576200e-021
  5.4953474e+002  3.3637800e-021
  5.4976988e+002  3.3691400e-021
  5.5000512e+002  3.3767600e-021
  5.5024035e+002  3.3837500e-021
  5.5047559e+002  3.3934800e-021
  5.5071083e+002  3.3984300e-021
  5.5094617e+002  3.4069400e-021
  5.5118150e+002  3.4160000e-021
  5.5141674e+002  3.4204400e-021
  5.5165208e+002  3.4294300e-021
  5.5188751e+002  3.4368000e-021
  5.5212285e+002  3.4460200e-021
  5.5235829e+002  3.4549900e-021
  5.5259373e+002  3.4635700e-021
  5.5282916e+002  3.4723400e-021
  5.5306460e+002  3.4820400e-021
  5.5330004e+002  3.4932400e-021
  5.5353557e+002  3.5032600e-021
  5.5377111e+002  3.5124100e-021
  5.5400665e+002  3.5234200e-021
  5.5424219e+002  3.5356400e-021
  5.5447772e+002  3.5476000e-021
  5.5471336e+002  3.5579400e-021
  5.5494900e+002  3.5701300e-021
  5.5518463e+002  3.5831400e-021
  5.5542027e+002  3.5973100e-021
  5.5565591e+002  3.6106400e-021
  5.5589165e+002  3.6260800e-021
  5.5612738e+002  3.6410800e-021
  5.5636312e+002  3.6595200e-021
  5.5659886e+002  3.6771300e-021
  5.5683469e+002  3.6921800e-021
  5.5707043e+002  3.7104600e-021
  5.5730627e+002  3.7316200e-021
  5.5754211e+002  3.7508900e-021
  5.5777804e+002  3.7732200e-021
  5.5801388e+002  3.7946600e-021
  5.5824982e+002  3.8150700e-021
  5.5848575e+002  3.8353000e-021
  5.5872169e+002  3.8609800e-021
  5.5895773e+002  3.8808600e-021
  5.5919366e+002  3.9044600e-021
  5.5942970e+002  3.9284900e-021
  5.5966574e+002  3.9543900e-021
  5.5990188e+002  3.9778700e-021
  5.6013791e+002  4.0033900e-021
  5.6037405e+002  4.0263300e-021
  5.6061019e+002  4.0521100e-021
  5.6084632e+002  4.0742500e-021
  5.6108256e+002  4.0974100e-021
  5.6131880e+002  4.1206700e-021
  5.6155503e+002  4.1460000e-021
  5.6179127e+002  4.1675300e-021
  5.6202751e+002  4.1891000e-021
  5.6226384e+002  4.2104700e-021
  5.6250018e+002  4.2303500e-021
  5.6273652e+002  4.2508600e-021
  5.6297286e+002  4.2717300e-021
  5.6320929e+002  4.2906100e-021
  5.6344573e+002  4.3118000e-021
  5.6368217e+002  4.3283900e-021
  5.6391870e+002  4.3425800e-021
  5.6415514e+002  4.3618200e-021
  5.6439168e+002  4.3795600e-021
  5.6462821e+002  4.3973000e-021
  5.6486475e+002  4.4135300e-021
  5.6510139e+002  4.4281500e-021
  5.6533802e+002  4.4426600e-021
  5.6557466e+002  4.4577800e-021
  5.6581130e+002  4.4691400e-021
  5.6604803e+002  4.4828900e-021
  5.6628477e+002  4.4981400e-021
  5.6652151e+002  4.5137400e-021
  5.6675824e+002  4.5271700e-021
  5.6699508e+002  4.5420700e-021
  5.6723192e+002  4.5546100e-021
  5.6746875e+002  4.5651700e-021
  5.6770569e+002  4.5797800e-021
  5.6794253e+002  4.5948400e-021
  5.6817946e+002  4.6064200e-021
  5.6841650e+002  4.6210600e-021
  5.6865344e+002  4.6366900e-021
  5.6889047e+002  4.6470000e-021
  5.6912751e+002  4.6629200e-021
  5.6936455e+002  4.6776900e-021
  5.6960168e+002  4.6919800e-021
  5.6983872e+002  4.7044900e-021
  5.7007596e+002  4.7177900e-021
  5.7031309e+002  4.7301700e-021
  5.7055033e+002  4.7434700e-021
  5.7078747e+002  4.7586900e-021
  5.7102480e+002  4.7702400e-021
  5.7126204e+002  4.7796200e-021
  5.7149938e+002  4.7943900e-021
  5.7173671e+002  4.8056200e-021
  5.7197405e+002  4.8160200e-021
  5.7221149e+002  4.8262900e-021
  5.7244892e+002  4.8350300e-021
  5.7268636e+002  4.8417900e-021
  5.7292380e+002  4.8470900e-021
  5.7316133e+002  4.8535000e-021
  5.7339887e+002  4.8588600e-021
  5.7363641e+002  4.8589900e-021
  5.7387404e+002  4.8604900e-021
  5.7411168e+002  4.8631100e-021
  5.7434932e+002  4.8634200e-021
  5.7458695e+002  4.8608700e-021
  5.7482469e+002  4.8581600e-021
  5.7506242e+002  4.8555100e-021
  5.7530016e+002  4.8526700e-021
  5.7553800e+002  4.8456200e-021
  5.7577583e+002  4.8387300e-021
  5.7601367e+002  4.8322200e-021
  5.7625151e+002  4.8269000e-021
  5.7648944e+002  4.8172300e-021
  5.7672738e+002  4.8099900e-021
  5.7696532e+002  4.8002300e-021
  5.7720335e+002  4.7905600e-021
  5.7744139e+002  4.7785600e-021
  5.7767943e+002  4.7705600e-021
  5.7791756e+002  4.7621300e-021
  5.7815570e+002  4.7499200e-021
  5.7839383e+002  4.7366400e-021
  5.7863197e+002  4.7231500e-021
  5.7887021e+002  4.7145000e-021
  5.7910844e+002  4.7059900e-021
  5.7934668e+002  4.6933800e-021
  5.7958502e+002  4.6796700e-021
  5.7982335e+002  4.6699000e-021
  5.8006169e+002  4.6596300e-021
  5.8030012e+002  4.6461700e-021
  5.8053856e+002  4.6356700e-021
  5.8077700e+002  4.6233300e-021
  5.8101553e+002  4.6128900e-021
  5.8125397e+002  4.6024900e-021
  5.8149261e+002  4.5938800e-021
  5.8173114e+002  4.5818200e-021
  5.8196978e+002  4.5739400e-021
  5.8220841e+002  4.5633200e-021
  5.8244705e+002  4.5561100e-021
  5.8268579e+002  4.5476800e-021
  5.8292452e+002  4.5345100e-021
  5.8316326e+002  4.5278400e-021
  5.8340209e+002  4.5249700e-021
  5.8364093e+002  4.5160100e-021
  5.8387977e+002  4.5086400e-021
  5.8411870e+002  4.4990000e-021
  5.8435764e+002  4.4959700e-021
  5.8459658e+002  4.4907100e-021
  5.8483561e+002  4.4855400e-021
  5.8507465e+002  4.4824400e-021
  5.8531368e+002  4.4788400e-021
  5.8555282e+002  4.4730600e-021
  5.8579196e+002  4.4722000e-021
  5.8603109e+002  4.4683400e-021
  5.8627023e+002  4.4659200e-021
  5.8650946e+002  4.4630800e-021
  5.8674880e+002  4.4598300e-021
  5.8698804e+002  4.4586400e-021
  5.8722737e+002  4.4599200e-021
  5.8746671e+002  4.4604600e-021
  5.8770614e+002  4.4614500e-021
  5.8794558e+002  4.4610400e-021
  5.8818502e+002  4.4654400e-021
  5.8842445e+002  4.4663000e-021
  5.8866399e+002  4.4673900e-021
  5.8890362e+002  4.4704800e-021
  5.8914316e+002  4.4714100e-021
  5.8938279e+002  4.4759000e-021
  5.8962243e+002  4.4822200e-021
  5.8986217e+002  4.4853800e-021
  5.9010190e+002  4.4914400e-021
  5.9034164e+002  4.5008500e-021
  5.9058147e+002  4.5113500e-021
  5.9082131e+002  4.5210500e-021
  5.9106115e+002  4.5313200e-021
  5.9130098e+002  4.5421700e-021
  5.9154092e+002  4.5556900e-021
  5.9178095e+002  4.5679700e-021
  5.9202089e+002  4.5829400e-021
  5.9226092e+002  4.5971000e-021
  5.9250106e+002  4.6156400e-021
  5.9274110e+002  4.6296100e-021
  5.9298123e+002  4.6480500e-021
  5.9322147e+002  4.6671900e-021
  5.9346160e+002  4.6856300e-021
  5.9370194e+002  4.7051200e-021
  5.9394217e+002  4.7265900e-021
  5.9418251e+002  4.7437300e-021
  5.9442285e+002  4.7662800e-021
  5.9466318e+002  4.7853000e-021
  5.9490362e+002  4.8071200e-021
  5.9514405e+002  4.8292300e-021
  5.9538459e+002  4.8523500e-021
  5.9562512e+002  4.8744000e-021
  5.9586566e+002  4.8963200e-021
  5.9610630e+002  4.9160600e-021
  5.9634683e+002  4.9369600e-021
  5.9658757e+002  4.9573100e-021
  5.9682820e+002  4.9804400e-021
  5.9706894e+002  4.9997800e-021
  5.9730977e+002  5.0214400e-021
  5.9755061e+002  5.0382200e-021
  5.9776705e+002  5.0696400e-021
  5.9799129e+002  5.0901900e-021
  5.9821543e+002  5.1070000e-021
  5.9843957e+002  5.1258200e-021
  5.9866361e+002  5.1425400e-021
  5.9888765e+002  5.1582400e-021
  5.9911159e+002  5.1740000e-021
  5.9933553e+002  5.1927600e-021
  5.9955937e+002  5.2076200e-021
  5.9978311e+002  5.2199000e-021
  6.0000695e+002  5.2335600e-021
  6.0023059e+002  5.2420100e-021
  6.0045423e+002  5.2499300e-021
  6.0067787e+002  5.2568500e-021
  6.0090141e+002  5.2667400e-021
  6.0112485e+002  5.2703400e-021
  6.0134829e+002  5.2789900e-021
  6.0157173e+002  5.2809300e-021
  6.0179507e+002  5.2813500e-021
  6.0201831e+002  5.2829100e-021
  6.0224155e+002  5.2829400e-021
  6.0246479e+002  5.2832000e-021
  6.0268793e+002  5.2811600e-021
  6.0291097e+002  5.2773300e-021
  6.0313401e+002  5.2763400e-021
  6.0335695e+002  5.2696400e-021
  6.0357989e+002  5.2630700e-021
  6.0380283e+002  5.2545200e-021
  6.0402567e+002  5.2482700e-021
  6.0424841e+002  5.2388900e-021
  6.0447116e+002  5.2329200e-021
  6.0469380e+002  5.2199000e-021
  6.0491644e+002  5.2070500e-021
  6.0513908e+002  5.1949600e-021
  6.0536152e+002  5.1834100e-021
  6.0558406e+002  5.1709700e-021
  6.0580650e+002  5.1594200e-021
  6.0602884e+002  5.1444200e-021
  6.0625118e+002  5.1292400e-021
  6.0647342e+002  5.1140800e-021
  6.0669566e+002  5.0953900e-021
  6.0691790e+002  5.0788000e-021
  6.0713994e+002  5.0629100e-021
  6.0736208e+002  5.0417300e-021
  6.0758412e+002  5.0241500e-021
  6.0780606e+002  5.0061300e-021
  6.0802800e+002  4.9891200e-021
  6.0824984e+002  4.9691800e-021
  6.0847168e+002  4.9480900e-021
  6.0869352e+002  4.9267500e-021
  6.0891526e+002  4.9115300e-021
  6.0913691e+002  4.8915300e-021
  6.0935855e+002  4.8711500e-021
  6.0958019e+002  4.8505400e-021
  6.0980173e+002  4.8298000e-021
  6.1002317e+002  4.8107900e-021
  6.1024461e+002  4.7911700e-021
  6.1046605e+002  4.7715500e-021
  6.1068739e+002  4.7526000e-021
  6.1090863e+002  4.7325600e-021
  6.1112987e+002  4.7119500e-021
  6.1135111e+002  4.6923600e-021
  6.1157225e+002  4.6731600e-021
  6.1179339e+002  4.6529600e-021
  6.1201443e+002  4.6330900e-021
  6.1223547e+002  4.6150300e-021
  6.1245642e+002  4.5983500e-021
  6.1267736e+002  4.5797200e-021
  6.1289820e+002  4.5580900e-021
  6.1311904e+002  4.5396500e-021
  6.1333978e+002  4.5219100e-021
  6.1356052e+002  4.5027000e-021
  6.1378116e+002  4.4846500e-021
  6.1400180e+002  4.4697500e-021
  6.1422244e+002  4.4535100e-021
  6.1444288e+002  4.4337900e-021
  6.1466342e+002  4.4179400e-021
  6.1488386e+002  4.4037400e-021
  6.1510431e+002  4.3848500e-021
  6.1532465e+002  4.3691900e-021
  6.1554489e+002  4.3545100e-021
  6.1576513e+002  4.3374100e-021
  6.1598537e+002  4.3224500e-021
  6.1620551e+002  4.3071400e-021
  6.1642565e+002  4.2924300e-021
  6.1664569e+002  4.2767400e-021
  6.1686573e+002  4.2630200e-021
  6.1708577e+002  4.2499400e-021
  6.1730572e+002  4.2342400e-021
  6.1752556e+002  4.2222800e-021
  6.1774540e+002  4.2069300e-021
  6.1796514e+002  4.1951300e-021
  6.1818498e+002  4.1807400e-021
  6.1840462e+002  4.1686200e-021
  6.1862426e+002  4.1564300e-021
  6.1884390e+002  4.1436400e-021
  6.1906344e+002  4.1322500e-021
  6.1928299e+002  4.1233200e-021
  6.1950253e+002  4.1102700e-021
  6.1972187e+002  4.0985000e-021
  6.1994131e+002  4.0882900e-021
  6.2016065e+002  4.0777900e-021
  6.2037989e+002  4.0681600e-021
  6.2059923e+002  4.0556500e-021
  6.2081837e+002  4.0448400e-021
  6.2103752e+002  4.0345300e-021
  6.2125666e+002  4.0239100e-021
  6.2147570e+002  4.0138300e-021
  6.2169474e+002  4.0027900e-021
  6.2191378e+002  3.9913700e-021
  6.2213272e+002  3.9794400e-021
  6.2235156e+002  3.9716200e-021
  6.2257040e+002  3.9647300e-021
  6.2278925e+002  3.9518400e-021
  6.2300799e+002  3.9423000e-021
  6.2322673e+002  3.9334600e-021
  6.2344537e+002  3.9223000e-021
  6.2366401e+002  3.9121800e-021
  6.2388265e+002  3.8999300e-021
  6.2410119e+002  3.8916400e-021
  6.2431963e+002  3.8803800e-021
  6.2453818e+002  3.8689900e-021
  6.2475652e+002  3.8586500e-021
  6.2497496e+002  3.8477100e-021
  6.2519330e+002  3.8369600e-021
  6.2541154e+002  3.8262400e-021
  6.2562978e+002  3.8156200e-021
  6.2584802e+002  3.8034600e-021
  6.2606617e+002  3.7953600e-021
  6.2628421e+002  3.7836800e-021
  6.2650235e+002  3.7724800e-021
  6.2672039e+002  3.7610300e-021
  6.2693833e+002  3.7491000e-021
  6.2715627e+002  3.7385400e-021
  6.2737422e+002  3.7284600e-021
  6.2759206e+002  3.7140400e-021
  6.2780990e+002  3.7027400e-021
  6.2802764e+002  3.6920200e-021
  6.2824538e+002  3.6766200e-021
  6.2846302e+002  3.6673300e-021
  6.2868067e+002  3.6528800e-021
  6.2889831e+002  3.6379500e-021
  6.2911585e+002  3.6285400e-021
  6.2933339e+002  3.6183300e-021
  6.2955083e+002  3.6042900e-021
  6.2976827e+002  3.5945300e-021
  6.2998571e+002  3.5847000e-021
  6.3020306e+002  3.5724200e-021
  6.3042040e+002  3.5630100e-021
  6.3063764e+002  3.5502500e-021
  6.3085488e+002  3.5365000e-021
  6.3107202e+002  3.5239300e-021
  6.3128927e+002  3.5141000e-021
  6.3150631e+002  3.5027800e-021
  6.3172335e+002  3.4900200e-021
  6.3194039e+002  3.4801300e-021
  6.3215743e+002  3.4692500e-021
  6.3237437e+002  3.4542900e-021
  6.3259122e+002  3.4418100e-021
  6.3280816e+002  3.4318300e-021
  6.3302500e+002  3.4212000e-021
  6.3324174e+002  3.4091100e-021
  6.3345848e+002  3.3953900e-021
  6.3367522e+002  3.3855700e-021
  6.3389187e+002  3.3697400e-021
  6.3410851e+002  3.3578100e-021
  6.3432505e+002  3.3472500e-021
  6.3454159e+002  3.3330900e-021
  6.3475813e+002  3.3213500e-021
  6.3497458e+002  3.3069900e-021
  6.3519102e+002  3.2962100e-021
  6.3540736e+002  3.2807000e-021
  6.3562370e+002  3.2649100e-021
  6.3584004e+002  3.2511300e-021
  6.3605629e+002  3.2393300e-021
  6.3627253e+002  3.2258600e-021
  6.3648877e+002  3.2117300e-021
  6.3670491e+002  3.1998300e-021
  6.3692095e+002  3.1865400e-021
  6.3713710e+002  3.1726600e-021
  6.3735314e+002  3.1617800e-021
  6.3756908e+002  3.1460100e-021
  6.3778502e+002  3.1318500e-021
  6.3800096e+002  3.1215500e-021
  6.3821691e+002  3.1074800e-021
  6.3843275e+002  3.0954400e-021
  6.3864849e+002  3.0797200e-021
  6.3886423e+002  3.0640200e-021
  6.3907997e+002  3.0530700e-021
  6.3929572e+002  3.0397200e-021
  6.3951136e+002  3.0229300e-021
  6.3972690e+002  3.0136600e-021
  6.3994254e+002  3.0007500e-021
  6.4015808e+002  2.9858500e-021
  6.4037353e+002  2.9719900e-021
  6.4058907e+002  2.9563900e-021
  6.4080441e+002  2.9458300e-021
  6.4101985e+002  2.9332000e-021
  6.4123520e+002  2.9207700e-021
  6.4145054e+002  2.9082400e-021
  6.4166578e+002  2.8960900e-021
  6.4188102e+002  2.8854200e-021
  6.4209626e+002  2.8737200e-021
  6.4231141e+002  2.8606800e-021
  6.4252655e+002  2.8508600e-021
  6.4274159e+002  2.8379200e-021
  6.4295663e+002  2.8264600e-021
  6.4317168e+002  2.8188300e-021
  6.4338662e+002  2.8078300e-021
  6.4360156e+002  2.7976400e-021
  6.4381650e+002  2.7862500e-021
  6.4403134e+002  2.7747400e-021
  6.4424619e+002  2.7662900e-021
  6.4446103e+002  2.7577100e-021
  6.4467577e+002  2.7474800e-021
  6.4489051e+002  2.7368300e-021
  6.4510516e+002  2.7280900e-021
  6.4531990e+002  2.7156900e-021
  6.4553444e+002  2.7055900e-021
  6.4574908e+002  2.6974900e-021
  6.4596363e+002  2.6892300e-021
  6.4617817e+002  2.6783600e-021
  6.4639261e+002  2.6649900e-021
  6.4660705e+002  2.6579100e-021
  6.4682150e+002  2.6473400e-021
  6.4703584e+002  2.6359200e-021
  6.4725018e+002  2.6276800e-021
  6.4746442e+002  2.6200900e-021
  6.4767877e+002  2.6105900e-021
  6.4789301e+002  2.5982600e-021
  6.4810715e+002  2.5890700e-021
  6.4832129e+002  2.5793100e-021
  6.4853544e+002  2.5696000e-021
  6.4874958e+002  2.5607500e-021
  6.4896362e+002  2.5541600e-021
  6.4917766e+002  2.5452500e-021
  6.4939161e+002  2.5349500e-021
  6.4960555e+002  2.5277700e-021
  6.4981949e+002  2.5229100e-021
  6.5003343e+002  2.5139500e-021
  6.5024728e+002  2.5049300e-021
  6.5046102e+002  2.4944200e-021
  6.5067486e+002  2.4875500e-021
  6.5088860e+002  2.4810300e-021
  6.5110235e+002  2.4715200e-021
  6.5131599e+002  2.4613000e-021
  6.5152963e+002  2.4518500e-021
  6.5174327e+002  2.4421400e-021
  6.5195682e+002  2.4338600e-021
  6.5217046e+002  2.4275600e-021
  6.5238390e+002  2.4188000e-021
  6.5259744e+002  2.4114700e-021
  6.5281089e+002  2.4037700e-021
  6.5302433e+002  2.3949600e-021
  6.5323767e+002  2.3857000e-021
  6.5345102e+002  2.3768900e-021
  6.5366436e+002  2.3676300e-021
  6.5387760e+002  2.3565800e-021
  6.5409094e+002  2.3489100e-021
  6.5430409e+002  2.3392800e-021
  6.5451733e+002  2.3306100e-021
  6.5473047e+002  2.3216700e-021
  6.5494361e+002  2.3135500e-021
  6.5515666e+002  2.3053700e-021
  6.5536980e+002  2.2942800e-021
  6.5558284e+002  2.2833100e-021
  6.5579579e+002  2.2750200e-021
  6.5600873e+002  2.2684300e-021
  6.5622167e+002  2.2615800e-021
  6.5643461e+002  2.2505500e-021
  6.5664746e+002  2.2415200e-021
  6.5686030e+002  2.2353900e-021
  6.5707314e+002  2.2247600e-021
  6.5728588e+002  2.2159400e-021
  6.5749863e+002  2.2075700e-021
  6.5771137e+002  2.1996600e-021
  6.5792411e+002  2.1883600e-021
  6.5813676e+002  2.1793100e-021
  6.5834930e+002  2.1728100e-021
  6.5856194e+002  2.1650200e-021
  6.5877448e+002  2.1584000e-021
  6.5898703e+002  2.1515700e-021
  6.5919957e+002  2.1432200e-021
  6.5941201e+002  2.1349100e-021
  6.5962446e+002  2.1255600e-021
  6.5983690e+002  2.1169800e-021
  6.6004924e+002  2.1077600e-021
  6.6026159e+002  2.1027200e-021
  6.6047393e+002  2.0927100e-021
  6.6068617e+002  2.0878300e-021
  6.6089841e+002  2.0769500e-021
  6.6111066e+002  2.0696900e-021
  6.6132290e+002  2.0616000e-021
  6.6153504e+002  2.0577700e-021
  6.6174719e+002  2.0475300e-021
  6.6195933e+002  2.0400200e-021
  6.6217137e+002  2.0311200e-021
  6.6238341e+002  2.0247400e-021
  6.6259546e+002  2.0150600e-021
  6.6280750e+002  2.0080800e-021
  6.6301944e+002  1.9981800e-021
  6.6323139e+002  1.9937400e-021
  6.6344333e+002  1.9854800e-021
  6.6365517e+002  1.9773100e-021
  6.6386702e+002  1.9686000e-021
  6.6407886e+002  1.9594300e-021
  6.6429060e+002  1.9510500e-021
  6.6450235e+002  1.9396200e-021
  6.6471409e+002  1.9326000e-021
  6.6492583e+002  1.9214700e-021
  6.6513747e+002  1.9106800e-021
  6.6534912e+002  1.9035500e-021
  6.6556076e+002  1.8964400e-021
  6.6577240e+002  1.8853600e-021
  6.6598395e+002  1.8768900e-021
  6.6619549e+002  1.8661500e-021
  6.6640703e+002  1.8569400e-021
  6.6661848e+002  1.8496400e-021
  6.6682992e+002  1.8377200e-021
  6.6704136e+002  1.8290000e-021
  6.6725281e+002  1.8193000e-021
  6.6746415e+002  1.8114500e-021
  6.6767549e+002  1.8019800e-021
  6.6788684e+002  1.7953600e-021
  6.6809808e+002  1.7834800e-021
  6.6830942e+002  1.7736900e-021
  6.6852067e+002  1.7662300e-021
  6.6873181e+002  1.7573800e-021
  6.6894305e+002  1.7483300e-021
  6.6915419e+002  1.7400600e-021
  6.6936534e+002  1.7308000e-021
  6.6957638e+002  1.7235200e-021
  6.6978752e+002  1.7125700e-021
  6.6999857e+002  1.7059600e-021
  6.7020961e+002  1.6966600e-021
  6.7042055e+002  1.6864100e-021
  6.7063160e+002  1.6784700e-021
  6.7084254e+002  1.6692900e-021
  6.7105338e+002  1.6601500e-021
  6.7126433e+002  1.6517900e-021
  6.7147517e+002  1.6460000e-021
  6.7168601e+002  1.6370600e-021
  6.7189686e+002  1.6288900e-021
  6.7210770e+002  1.6224200e-021
  6.7231844e+002  1.6080200e-021
  6.7252919e+002  1.6051200e-021
  6.7273993e+002  1.5960800e-021
  6.7295057e+002  1.5883000e-021
  6.7316122e+002  1.5791800e-021
  6.7337186e+002  1.5721300e-021
  6.7358250e+002  1.5659500e-021
  6.7379315e+002  1.5563800e-021
  6.7400369e+002  1.5466200e-021
  6.7421423e+002  1.5404500e-021
  6.7442478e+002  1.5307100e-021
  6.7463522e+002  1.5251500e-021
  6.7484566e+002  1.5163900e-021
  6.7505611e+002  1.5067200e-021
  6.7526655e+002  1.5017700e-021
  6.7547699e+002  1.4972900e-021
  6.7568734e+002  1.4942900e-021
  6.7589768e+002  1.4882700e-021
  6.7610802e+002  1.4786900e-021
  6.7631827e+002  1.4679400e-021
  6.7652861e+002  1.4629200e-021
  6.7673886e+002  1.4564000e-021
  6.7694910e+002  1.4479000e-021
  6.7715924e+002  1.4393200e-021
  6.7736949e+002  1.4333900e-021
  6.7757963e+002  1.4257300e-021
  6.7778977e+002  1.4189900e-021
  6.7799992e+002  1.4133600e-021
  6.7820996e+002  1.4095500e-021
  6.7842000e+002  1.4029400e-021
  6.7863005e+002  1.3963000e-021
  6.7884009e+002  1.3916000e-021
  6.7905013e+002  1.3828000e-021
  6.7926008e+002  1.3759700e-021
  6.7947002e+002  1.3703800e-021
  6.7967996e+002  1.3644900e-021
  6.7988991e+002  1.3621900e-021
  6.8009975e+002  1.3571900e-021
  6.8030959e+002  1.3498500e-021
  6.8051944e+002  1.3426300e-021
  6.8072928e+002  1.3362500e-021
  6.8093913e+002  1.3364600e-021
  6.8114887e+002  1.3320700e-021
  6.8135861e+002  1.3239700e-021
  6.8156836e+002  1.3212200e-021
  6.8177810e+002  1.3198600e-021
  6.8198774e+002  1.3164700e-021
  6.8219749e+002  1.3119600e-021
  6.8240713e+002  1.3064500e-021
  6.8261667e+002  1.3007300e-021
  6.8282632e+002  1.2976200e-021
  6.8303586e+002  1.2941100e-021
  6.8324550e+002  1.2901800e-021
  6.8345505e+002  1.2859500e-021
  6.8366449e+002  1.2842000e-021
  6.8387404e+002  1.2763800e-021
  6.8408348e+002  1.2715900e-021
  6.8429302e+002  1.2696900e-021
  6.8450237e+002  1.2664900e-021
  6.8471181e+002  1.2600900e-021
  6.8492125e+002  1.2532100e-021
  6.8513060e+002  1.2490600e-021
  6.8533994e+002  1.2441300e-021
  6.8554928e+002  1.2423200e-021
  6.8575863e+002  1.2355100e-021
  6.8596787e+002  1.2295400e-021
  6.8617722e+002  1.2242700e-021
  6.8638646e+002  1.2205800e-021
  6.8659570e+002  1.2113600e-021
  6.8680495e+002  1.2057000e-021
  6.8701409e+002  1.2006300e-021
  6.8722323e+002  1.1924800e-021
  6.8743248e+002  1.1863800e-021
  6.8764162e+002  1.1809500e-021
  6.8785067e+002  1.1764200e-021
  6.8805981e+002  1.1699100e-021
  6.8826885e+002  1.1612100e-021
  6.8847800e+002  1.1539300e-021
  6.8868704e+002  1.1486800e-021
  6.8889598e+002  1.1408100e-021
  6.8910503e+002  1.1328700e-021
  6.8931407e+002  1.1289000e-021
  6.8952302e+002  1.1218700e-021
  6.8973196e+002  1.1156900e-021
  6.8994090e+002  1.1089100e-021
  6.9014985e+002  1.1017500e-021
  6.9035869e+002  1.0910100e-021
  6.9056753e+002  1.0845000e-021
  6.9077648e+002  1.0812600e-021
  6.9098532e+002  1.0753900e-021
  6.9119407e+002  1.0706500e-021
  6.9140291e+002  1.0670200e-021
  6.9161175e+002  1.0600200e-021
  6.9182050e+002  1.0525500e-021
  6.9202924e+002  1.0488100e-021
  6.9223798e+002  1.0426900e-021
  6.9244673e+002  1.0342500e-021
  6.9265537e+002  1.0303800e-021
  6.9286412e+002  1.0245300e-021
  6.9307276e+002  1.0175100e-021
  6.9328140e+002  1.0119900e-021
  6.9349005e+002  1.0048500e-021
  6.9369869e+002  9.9733900e-022
  6.9390724e+002  9.9109600e-022
  6.9411588e+002  9.8533400e-022
  6.9432442e+002  9.7981200e-022
  6.9453297e+002  9.7442400e-022
  6.9474151e+002  9.6813600e-022
  6.9495005e+002  9.6270300e-022
  6.9515850e+002  9.5758200e-022
  6.9536704e+002  9.5189400e-022
  6.9557549e+002  9.4584900e-022
  6.9578393e+002  9.4041200e-022
  6.9599237e+002  9.3476900e-022
  6.9620082e+002  9.2947600e-022
  6.9640926e+002  9.2445800e-022
  6.9661761e+002  9.1822400e-022
  6.9682595e+002  9.1319600e-022
  6.9703439e+002  9.0836900e-022
  6.9724274e+002  9.0273200e-022
  6.9745108e+002  8.9762800e-022
  6.9765933e+002  8.9269200e-022
  6.9786767e+002  8.8778600e-022
  6.9807591e+002  8.8239100e-022
  6.9828426e+002  8.7732800e-022
  6.9849250e+002  8.7284300e-022
  6.9870075e+002  8.6787200e-022
  6.9890889e+002  8.6318900e-022
  6.9911713e+002  8.5792200e-022
  6.9932538e+002  8.5332500e-022
  6.9953352e+002  8.4931100e-022
  6.9974167e+002  8.4488000e-022
  6.9994981e+002  8.4013900e-022
  7.0015795e+002  8.3682500e-022
  7.0036610e+002  8.3309500e-022
  7.0057424e+002  8.2927600e-022
  7.0078228e+002  8.2548300e-022
  7.0099043e+002  8.2138400e-022
  7.0119847e+002  8.1811700e-022
  7.0140652e+002  8.1434600e-022
  7.0161456e+002  8.1037100e-022
  7.0182260e+002  8.0710700e-022
  7.0203065e+002  8.0397800e-022
  7.0223869e+002  8.0038900e-022
  7.0244664e+002  7.9722100e-022
  7.0265458e+002  7.9336400e-022
  7.0286262e+002  7.8992800e-022
  7.0307057e+002  7.8771000e-022
  7.0327851e+002  7.8510700e-022
  7.0348636e+002  7.8192000e-022
  7.0369430e+002  7.7877800e-022
  7.0390224e+002  7.7574100e-022
  7.0411009e+002  7.7339900e-022
  7.0431793e+002  7.7019900e-022
  7.0452588e+002  7.6746800e-022
  7.0473372e+002  7.6533700e-022
  7.0494156e+002  7.6245000e-022
  7.0514941e+002  7.6006000e-022
  7.0535715e+002  7.5797700e-022
  7.0556500e+002  7.5498200e-022
  7.0577274e+002  7.5282500e-022
  7.0598059e+002  7.5078300e-022
  7.0618833e+002  7.4854000e-022
  7.0639607e+002  7.4578400e-022
  7.0660382e+002  7.4358600e-022
  7.0681156e+002  7.4127000e-022
  7.0701931e+002  7.3928200e-022
  7.0722705e+002  7.3727200e-022
  7.0743469e+002  7.3490200e-022
  7.0764244e+002  7.3295600e-022
  7.0785008e+002  7.3014900e-022
  7.0805773e+002  7.2764100e-022
  7.0826537e+002  7.2593100e-022
  7.0847301e+002  7.2448000e-022
  7.0868066e+002  7.2260700e-022
  7.0888830e+002  7.2024900e-022
  7.0909595e+002  7.1825500e-022
  7.0930349e+002  7.1616900e-022
  7.0951113e+002  7.1413000e-022
  7.0971868e+002  7.1256700e-022
  7.0992632e+002  7.1047400e-022
  7.1013387e+002  7.0869400e-022
  7.1034141e+002  7.0741800e-022
  7.1054895e+002  7.0500000e-022
  7.1075650e+002  7.0347800e-022
  7.1096404e+002  7.0205200e-022
  7.1117149e+002  7.0120000e-022
  7.1137903e+002  6.9991100e-022
  7.1158658e+002  6.9848800e-022
  7.1179402e+002  6.9656200e-022
  7.1200146e+002  6.9593300e-022
  7.1220901e+002  6.9525400e-022
  7.1241645e+002  6.9454800e-022
  7.1262390e+002  6.9370600e-022
  7.1283134e+002  6.9316100e-022
  7.1303878e+002  6.9271700e-022
  7.1324623e+002  6.9257700e-022
  7.1345357e+002  6.9152700e-022
  7.1366102e+002  6.9120500e-022
  7.1386846e+002  6.9080300e-022
  7.1407580e+002  6.9011100e-022
  7.1428315e+002  6.9000200e-022
  7.1449059e+002  6.8971500e-022
  7.1469794e+002  6.8945000e-022
  7.1490528e+002  6.8849700e-022
  7.1511263e+002  6.8769900e-022
  7.1531997e+002  6.8689800e-022
  7.1552731e+002  6.8522300e-022
  7.1573466e+002  6.8381600e-022
  7.1594200e+002  6.8205200e-022
  7.1614935e+002  6.7994300e-022
  7.1635659e+002  6.7774900e-022
  7.1656393e+002  6.7551200e-022
  7.1677118e+002  6.7299200e-022
  7.1697852e+002  6.6925300e-022
  7.1718577e+002  6.6588400e-022
  7.1739301e+002  6.6279900e-022
  7.1760026e+002  6.5941700e-022
  7.1780760e+002  6.5510700e-022
  7.1801484e+002  6.5100800e-022
  7.1822209e+002  6.4644900e-022
  7.1842933e+002  6.4200500e-022
  7.1863658e+002  6.3742400e-022
  7.1884372e+002  6.3271500e-022
  7.1905096e+002  6.2821000e-022
  7.1925821e+002  6.2320800e-022
  7.1946535e+002  6.1806800e-022
  7.1967260e+002  6.1295100e-022
  7.1987984e+002  6.0807000e-022
  7.2008699e+002  6.0312200e-022
  7.2029413e+002  5.9896800e-022
  7.2050137e+002  5.9353500e-022
  7.2070852e+002  5.8905600e-022
  7.2091566e+002  5.8500800e-022
  7.2112291e+002  5.8013600e-022
  7.2133005e+002  5.7620600e-022
  7.2153719e+002  5.7235200e-022
  7.2174434e+002  5.6816900e-022
  7.2195148e+002  5.6432200e-022
  7.2215863e+002  5.6077800e-022
  7.2236577e+002  5.5776600e-022
  7.2257282e+002  5.5496500e-022
  7.2277996e+002  5.5144000e-022
  7.2298710e+002  5.4741400e-022
  7.2319425e+002  5.4487400e-022
  7.2340129e+002  5.4160100e-022
  7.2360844e+002  5.3935200e-022
  7.2381558e+002  5.3556800e-022
  7.2402262e+002  5.3337000e-022
  7.2422977e+002  5.3166300e-022
  7.2443681e+002  5.2905400e-022
  7.2464396e+002  5.2587600e-022
  7.2485100e+002  5.2405100e-022
  7.2505805e+002  5.2242400e-022
  7.2526519e+002  5.1996800e-022
  7.2547223e+002  5.1683200e-022
  7.2567928e+002  5.1463100e-022
  7.2588632e+002  5.1236500e-022
  7.2609347e+002  5.0985500e-022
  7.2630051e+002  5.0648900e-022
  7.2650755e+002  5.0358300e-022
  7.2671460e+002  5.0090900e-022
  7.2692164e+002  4.9869500e-022
  7.2712869e+002  4.9483800e-022
  7.2733573e+002  4.9161900e-022
  7.2754278e+002  4.8886000e-022
  7.2774982e+002  4.8628800e-022
  7.2795686e+002  4.8290000e-022
  7.2816391e+002  4.8005100e-022
  7.2837095e+002  4.7713200e-022
  7.2857800e+002  4.7499200e-022
  7.2878504e+002  4.7245800e-022
  7.2899199e+002  4.6886000e-022
  7.2919903e+002  4.6611900e-022
  7.2940607e+002  4.6347200e-022
  7.2961312e+002  4.6055900e-022
  7.2982016e+002  4.5763300e-022
  7.3002711e+002  4.5612400e-022
  7.3023415e+002  4.5378900e-022
  7.3044119e+002  4.5177600e-022
  7.3064824e+002  4.5026700e-022
  7.3085518e+002  4.4770800e-022
  7.3106223e+002  4.4543100e-022
  7.3126927e+002  4.4419300e-022
  7.3147622e+002  4.4239000e-022
  7.3168326e+002  4.4069900e-022
  7.3189030e+002  4.3906900e-022
  7.3209725e+002  4.3763000e-022
  7.3230429e+002  4.3613100e-022
  7.3251134e+002  4.3538100e-022
  7.3271828e+002  4.3458700e-022
  7.3292532e+002  4.3351800e-022
  7.3313237e+002  4.3181500e-022
  7.3333931e+002  4.3026700e-022
  7.3354636e+002  4.3008900e-022
  7.3375340e+002  4.2968700e-022
  7.3396035e+002  4.2905200e-022
  7.3416739e+002  4.2806900e-022
  7.3437443e+002  4.2727500e-022
  7.3458138e+002  4.2661400e-022
  7.3478842e+002  4.2721700e-022
  7.3499547e+002  4.2646800e-022
  7.3520241e+002  4.2503500e-022
  7.3540946e+002  4.2359000e-022
  7.3561650e+002  4.2343100e-022
  7.3582354e+002  4.2367000e-022
  7.3603049e+002  4.2300600e-022
  7.3623753e+002  4.2249300e-022
  7.3644458e+002  4.2221800e-022
  7.3665162e+002  4.2106000e-022
  7.3685856e+002  4.2089700e-022
  7.3706561e+002  4.2084000e-022
  7.3727265e+002  4.1988300e-022
  7.3747970e+002  4.1936600e-022
  7.3768674e+002  4.1906000e-022
  7.3789379e+002  4.1909200e-022
  7.3810073e+002  4.1885600e-022
  7.3830777e+002  4.1854300e-022
  7.3851482e+002  4.1803300e-022
  7.3872186e+002  4.1777700e-022
  7.3892891e+002  4.1753800e-022
  7.3913595e+002  4.1773300e-022
  7.3934299e+002  4.1807100e-022
  7.3955004e+002  4.1822700e-022
  7.3975718e+002  4.1764000e-022
  7.3996423e+002  4.1729200e-022
  7.4017127e+002  4.1835800e-022
  7.4037832e+002  4.1855600e-022
  7.4058536e+002  4.1924500e-022
  7.4079240e+002  4.1950300e-022
  7.4099955e+002  4.2066800e-022
  7.4120659e+002  4.2103800e-022
  7.4141364e+002  4.2225000e-022
  7.4162078e+002  4.2303200e-022
  7.4182782e+002  4.2389600e-022
  7.4203497e+002  4.2463000e-022
  7.4224201e+002  4.2595100e-022
  7.4244916e+002  4.2678400e-022
  7.4265620e+002  4.2826100e-022
  7.4286335e+002  4.2931300e-022
  7.4307049e+002  4.2996400e-022
  7.4327753e+002  4.3205100e-022
  7.4348468e+002  4.3379900e-022
  7.4369182e+002  4.3451000e-022
  7.4389897e+002  4.3593000e-022
  7.4410611e+002  4.3799400e-022
  7.4431325e+002  4.3953200e-022
  7.4452040e+002  4.4097400e-022
  7.4472754e+002  4.4295500e-022
  7.4493469e+002  4.4448900e-022
  7.4514183e+002  4.4631700e-022
  7.4534897e+002  4.4714400e-022
  7.4555612e+002  4.4812300e-022
  7.4576336e+002  4.5009500e-022
  7.4597051e+002  4.5143500e-022
  7.4617765e+002  4.5140300e-022
  7.4638490e+002  4.5185900e-022
  7.4659204e+002  4.5267200e-022
  7.4679928e+002  4.5307100e-022
  7.4700653e+002  4.5345700e-022
  7.4721367e+002  4.5265700e-022
  7.4742092e+002  4.5301700e-022
  7.4762816e+002  4.5266900e-022
  7.4783540e+002  4.5088000e-022
  7.4804265e+002  4.4971200e-022
  7.4824989e+002  4.4831500e-022
  7.4845714e+002  4.4697500e-022
  7.4866438e+002  4.4492700e-022
  7.4887162e+002  4.4236200e-022
  7.4907897e+002  4.3995000e-022
  7.4928621e+002  4.3673700e-022
  7.4949346e+002  4.3323700e-022
  7.4970080e+002  4.3015600e-022
  7.4990804e+002  4.2686000e-022
  7.5011539e+002  4.2362200e-022
  7.5032273e+002  4.1930900e-022
  7.5053008e+002  4.1466700e-022
  7.5073742e+002  4.0915400e-022
  7.5094467e+002  4.0415800e-022
  7.5115211e+002  3.9891700e-022
  7.5135945e+002  3.9483900e-022
  7.5156680e+002  3.9019100e-022
  7.5177414e+002  3.8538700e-022
  7.5198149e+002  3.8041900e-022
  7.5218893e+002  3.7562400e-022
  7.5239627e+002  3.7132400e-022
  7.5260372e+002  3.6601200e-022
  7.5281116e+002  3.6117300e-022
  7.5301861e+002  3.5696500e-022
  7.5322595e+002  3.5273100e-022
  7.5343339e+002  3.4855200e-022
  7.5364084e+002  3.4399000e-022
  7.5384838e+002  3.4059200e-022
  7.5405583e+002  3.3641600e-022
  7.5426327e+002  3.3262300e-022
  7.5447081e+002  3.2944200e-022
  7.5467826e+002  3.2560100e-022
  7.5488580e+002  3.2223900e-022
  7.5509325e+002  3.1953300e-022
  7.5530079e+002  3.1657600e-022
  7.5550833e+002  3.1399800e-022
  7.5571588e+002  3.1072500e-022
  7.5592342e+002  3.0829200e-022
  7.5613097e+002  3.0522000e-022
  7.5633861e+002  3.0276000e-022
  7.5654615e+002  3.0032700e-022
  7.5675370e+002  2.9816100e-022
  7.5696134e+002  2.9565700e-022
  7.5716899e+002  2.9381200e-022
  7.5737663e+002  2.9182100e-022
  7.5758427e+002  2.8939800e-022
  7.5779192e+002  2.8781300e-022
  7.5799956e+002  2.8702700e-022
  7.5820721e+002  2.8496700e-022
  7.5841485e+002  2.8310900e-022
  7.5862259e+002  2.8069300e-022
  7.5883024e+002  2.7972100e-022
  7.5903798e+002  2.7846600e-022
  7.5924573e+002  2.7697100e-022
  7.5945347e+002  2.7494800e-022
  7.5966121e+002  2.7337300e-022
  7.5986896e+002  2.7103900e-022
  7.6007670e+002  2.6972600e-022
  7.6028455e+002  2.6819300e-022
  7.6049229e+002  2.6711700e-022
  7.6070013e+002  2.6554600e-022
  7.6090798e+002  2.6457500e-022
  7.6111572e+002  2.6300700e-022
  7.6132356e+002  2.6323100e-022
  7.6153151e+002  2.6401500e-022
  7.6173935e+002  2.6347700e-022
  7.6194720e+002  2.6163800e-022
  7.6215514e+002  2.6089200e-022
  7.6236298e+002  2.5918600e-022
  7.6257093e+002  2.5766500e-022
  7.6277887e+002  2.5621800e-022
  7.6298682e+002  2.5589900e-022
  7.6319476e+002  2.5539200e-022
  7.6340270e+002  2.5424900e-022
  7.6361075e+002  2.5259900e-022
  7.6381869e+002  2.5236300e-022
  7.6402674e+002  2.5233000e-022
  7.6423478e+002  2.5341500e-022
  7.6444282e+002  2.5375500e-022
  7.6465087e+002  2.5364500e-022
  7.6485891e+002  2.5287700e-022
  7.6506705e+002  2.5188600e-022
  7.6527510e+002  2.5113400e-022
  7.6548324e+002  2.5056500e-022
  7.6569139e+002  2.4894500e-022
  7.6589953e+002  2.4732700e-022
  7.6610767e+002  2.4690300e-022
  7.6631582e+002  2.4687800e-022
  7.6652396e+002  2.4636900e-022
  7.6673221e+002  2.4660400e-022
  7.6694045e+002  2.4704200e-022
  7.6714859e+002  2.4666500e-022
  7.6735684e+002  2.4690800e-022
  7.6756518e+002  2.4785800e-022
  7.6777342e+002  2.4801800e-022
  7.6798167e+002  2.4825400e-022
  7.6819001e+002  2.4893700e-022
  7.6839836e+002  2.4865100e-022
  7.6860670e+002  2.4922700e-022
  7.6881504e+002  2.4930800e-022
  7.6902339e+002  2.4920200e-022
  7.6923173e+002  2.5036900e-022
  7.6944017e+002  2.5025000e-022
  7.6964862e+002  2.5102300e-022
  7.6985696e+002  2.5220200e-022
  7.7006541e+002  2.5283000e-022
  7.7027395e+002  2.5328000e-022
  7.7048239e+002  2.5398100e-022
  7.7069094e+002  2.5478700e-022
  7.7089938e+002  2.5602600e-022
  7.7110792e+002  2.5738100e-022
  7.7131647e+002  2.5884300e-022
  7.7152501e+002  2.6016100e-022
  7.7173366e+002  2.6094100e-022
  7.7194220e+002  2.6190800e-022
  7.7215084e+002  2.6405900e-022
  7.7235949e+002  2.6583800e-022
  7.7256813e+002  2.6776300e-022
  7.7277677e+002  2.6951700e-022
  7.7298552e+002  2.7145900e-022
  7.7319416e+002  2.7405600e-022
  7.7340290e+002  2.7673500e-022
  7.7361165e+002  2.7855100e-022
  7.7382039e+002  2.8142800e-022
  7.7402914e+002  2.8306600e-022
  7.7423798e+002  2.8500800e-022
  7.7444672e+002  2.8810100e-022
  7.7465557e+002  2.9077700e-022
  7.7486441e+002  2.9403500e-022
  7.7507335e+002  2.9755600e-022
  7.7528220e+002  2.9956300e-022
  7.7549114e+002  3.0235200e-022
  7.7569998e+002  3.0485200e-022
  7.7590893e+002  3.0751200e-022
  7.7611797e+002  3.1028000e-022
  7.7632692e+002  3.1328800e-022
  7.7653586e+002  3.1565200e-022
  7.7674490e+002  3.1846500e-022
  7.7695395e+002  3.2002800e-022
  7.7716299e+002  3.2331400e-022
  7.7737213e+002  3.2506800e-022
  7.7758118e+002  3.2674300e-022
  7.7779032e+002  3.2841500e-022
  7.7799946e+002  3.2986700e-022
  7.7820861e+002  3.3053300e-022
  7.7841775e+002  3.3225600e-022
  7.7862699e+002  3.3257200e-022
  7.7883614e+002  3.3294500e-022
  7.7904538e+002  3.3286900e-022
  7.7925472e+002  3.3276300e-022
  7.7946397e+002  3.3208100e-022
  7.7967321e+002  3.3131500e-022
  7.7988256e+002  3.3015700e-022
  7.8009190e+002  3.2950000e-022
  7.8030124e+002  3.2773500e-022
  7.8051069e+002  3.2681000e-022
  7.8072003e+002  3.2467300e-022
  7.8092947e+002  3.2256100e-022
  7.8094047e+002  3.2252600e-022
  7.8124009e+002  3.1854800e-022
  7.8153971e+002  3.1355700e-022
  7.8183923e+002  3.0883900e-022
  7.8213865e+002  3.0463300e-022
  7.8243797e+002  2.9994500e-022
  7.8273718e+002  2.9434600e-022
  7.8303640e+002  2.8935700e-022
  7.8333552e+002  2.8415000e-022
  7.8363454e+002  2.7895000e-022
  7.8393346e+002  2.7402000e-022
  7.8423238e+002  2.6877500e-022
  7.8453120e+002  2.6341500e-022
  7.8482992e+002  2.5857100e-022
  7.8512854e+002  2.5431500e-022
  7.8542716e+002  2.5004100e-022
  7.8572558e+002  2.4598700e-022
  7.8602400e+002  2.4131300e-022
  7.8632242e+002  2.3683100e-022
  7.8662064e+002  2.3320500e-022
  7.8691886e+002  2.2997100e-022
  7.8721697e+002  2.2655000e-022
  7.8751509e+002  2.2383700e-022
  7.8781301e+002  2.2025100e-022
  7.8811093e+002  2.1704000e-022
  7.8840875e+002  2.1470200e-022
  7.8870657e+002  2.1242200e-022
  7.8900419e+002  2.0978400e-022
  7.8930181e+002  2.0830800e-022
  7.8959933e+002  2.0543100e-022
  7.8989685e+002  2.0367000e-022
  7.9019427e+002  2.0088200e-022
  7.9049149e+002  1.9805000e-022
  7.9078881e+002  1.9559700e-022
  7.9108593e+002  1.9291400e-022
  7.9138305e+002  1.9050900e-022
  7.9168007e+002  1.8861400e-022
  7.9197699e+002  1.8599600e-022
  7.9227391e+002  1.8358900e-022
  7.9257073e+002  1.8149400e-022
  7.9286745e+002  1.7903400e-022
  7.9316407e+002  1.7657100e-022
  7.9346069e+002  1.7480600e-022
  7.9375721e+002  1.7272700e-022
  7.9405363e+002  1.7091000e-022
  7.9435005e+002  1.6930900e-022
  7.9464637e+002  1.6703000e-022
  7.9494259e+002  1.6565700e-022
  7.9523871e+002  1.6461900e-022
  7.9553483e+002  1.6340800e-022
  7.9583085e+002  1.6222500e-022
  7.9612677e+002  1.6041700e-022
  7.9642269e+002  1.5951200e-022
  7.9671851e+002  1.5824000e-022
  7.9701423e+002  1.5742100e-022
  7.9730995e+002  1.5648200e-022
  7.9760547e+002  1.5617900e-022
  7.9790099e+002  1.5580600e-022
  7.9819651e+002  1.5463400e-022
  7.9849183e+002  1.5375300e-022
  7.9878715e+002  1.5279300e-022
  7.9908247e+002  1.5220800e-022
  7.9937759e+002  1.5137500e-022
  7.9967271e+002  1.5046800e-022
  7.9996773e+002  1.4927200e-022
  8.0026275e+002  1.4920600e-022
  8.0055767e+002  1.4889600e-022
  8.0085249e+002  1.4787800e-022
  8.0114721e+002  1.4729100e-022
  8.0144193e+002  1.4664700e-022
  8.0173655e+002  1.4651900e-022
  8.0203107e+002  1.4716900e-022
  8.0232559e+002  1.4696000e-022
  8.0262001e+002  1.4629200e-022
  8.0291433e+002  1.4638100e-022
  8.0320865e+002  1.4611000e-022
  8.0350288e+002  1.4594500e-022
  8.0379700e+002  1.4646400e-022
  8.0409112e+002  1.4631200e-022
  8.0438514e+002  1.4674500e-022
  8.0467906e+002  1.4779900e-022
  8.0497298e+002  1.4872800e-022
  8.0526680e+002  1.4952900e-022
  8.0556052e+002  1.5109200e-022
  8.0585424e+002  1.5195100e-022
  8.0614776e+002  1.5314000e-022
  8.0644138e+002  1.5513600e-022
  8.0673480e+002  1.5714700e-022
  8.0702822e+002  1.5888000e-022
  8.0732164e+002  1.6127600e-022
  8.0761486e+002  1.6390300e-022
  8.0790808e+002  1.6629500e-022
  8.0820121e+002  1.6938900e-022
  8.0849433e+002  1.7263700e-022
  8.0878735e+002  1.7437600e-022
  8.0908027e+002  1.7661300e-022
  8.0937319e+002  1.7982400e-022
  8.0966601e+002  1.8251000e-022
  8.0995873e+002  1.8582100e-022
  8.1025145e+002  1.8870800e-022
  8.1054407e+002  1.9121600e-022
  8.1083669e+002  1.9456900e-022
  8.1112911e+002  1.9700500e-022
  8.1142164e+002  1.9986300e-022
  8.1171396e+002  2.0279300e-022
  8.1200628e+002  2.0588500e-022
  8.1229850e+002  2.0834100e-022
  8.1259072e+002  2.1071000e-022
  8.1288284e+002  2.1354600e-022
  8.1317486e+002  2.1632300e-022
  8.1346688e+002  2.1977300e-022
  8.1375880e+002  2.2169800e-022
  8.1405062e+002  2.2383300e-022
  8.1434245e+002  2.2574800e-022
  8.1463417e+002  2.2768000e-022
  8.1492579e+002  2.2945500e-022
  8.1521741e+002  2.3097900e-022
  8.1550903e+002  2.3213500e-022
  8.1580045e+002  2.3394000e-022
  8.1609187e+002  2.3362500e-022
  8.1638329e+002  2.3376200e-022
  8.1667452e+002  2.3396900e-022
  8.1696584e+002  2.3362400e-022
  8.1725696e+002  2.3292400e-022
  8.1754808e+002  2.3166200e-022
  8.1783910e+002  2.3048100e-022
  8.1813012e+002  2.2891700e-022
  8.1842104e+002  2.2646200e-022
  8.1871186e+002  2.2432600e-022
  8.1900269e+002  2.2167200e-022
  8.1929341e+002  2.1891800e-022
  8.1958413e+002  2.1561900e-022
  8.1987475e+002  2.1154200e-022
  8.2016527e+002  2.0834900e-022
  8.2045579e+002  2.0518800e-022
  8.2074621e+002  2.0158600e-022
  8.2103664e+002  1.9703700e-022
  8.2132696e+002  1.9288400e-022
  8.2161718e+002  1.8853300e-022
  8.2190740e+002  1.8395300e-022
  8.2219752e+002  1.7919700e-022
  8.2248764e+002  1.7480500e-022
  8.2277767e+002  1.7109400e-022
  8.2306759e+002  1.6543000e-022
  8.2335751e+002  1.6054300e-022
  8.2364733e+002  1.5519900e-022
  8.2393715e+002  1.5084100e-022
  8.2422687e+002  1.4707900e-022
  8.2451650e+002  1.4387800e-022
  8.2480612e+002  1.3980100e-022
  8.2509574e+002  1.3650800e-022
  8.2538516e+002  1.3282100e-022
  8.2567458e+002  1.2927000e-022
  8.2596400e+002  1.2599500e-022
  8.2625333e+002  1.2288400e-022
  8.2654255e+002  1.1918100e-022
  8.2683177e+002  1.1568900e-022
  8.2712089e+002  1.1338400e-022
  8.2741001e+002  1.0991200e-022
  8.2769903e+002  1.0793200e-022
  8.2798796e+002  1.0630700e-022
  8.2827688e+002  1.0369600e-022
  8.2856580e+002  1.0122800e-022
  8.2885452e+002  1.0018900e-022
  8.2914334e+002  9.7753100e-023
  8.2943197e+002  9.4472900e-023
  8.2972059e+002  9.2605300e-023
  8.3000921e+002  9.1152100e-023
  8.3029773e+002  8.9532400e-023
  8.3058615e+002  8.8064900e-023
  8.3087458e+002  8.6589700e-023
  8.3116290e+002  8.4650700e-023
  8.3145122e+002  8.3389600e-023
  8.3173944e+002  8.2458400e-023
  8.3202766e+002  8.1511500e-023
  8.3231579e+002  8.0530800e-023
  8.3260381e+002  7.9316900e-023
  8.3289183e+002  7.8803000e-023
  8.3317985e+002  7.8488100e-023
  8.3346778e+002  7.7679000e-023
  8.3375560e+002  7.6967000e-023
  8.3404342e+002  7.5654500e-023
  8.3433114e+002  7.5053800e-023
  8.3461876e+002  7.4513000e-023
  8.3490649e+002  7.5042000e-023
  8.3519401e+002  7.4605500e-023
  8.3548153e+002  7.4102400e-023
  8.3576905e+002  7.2835900e-023
  8.3605648e+002  7.2391200e-023
  8.3634380e+002  7.2694900e-023
  8.3663112e+002  7.2337200e-023
  8.3691834e+002  7.2139100e-023
  8.3720556e+002  7.2921400e-023
  8.3749269e+002  7.2437100e-023
  8.3777981e+002  7.1940700e-023
  8.3806693e+002  7.1886100e-023
  8.3835385e+002  7.2251400e-023
  8.3864078e+002  7.2433900e-023
  8.3892770e+002  7.1940700e-023
  8.3921452e+002  7.1706900e-023
  8.3950134e+002  7.1808600e-023
  8.3978807e+002  7.2210000e-023
  8.4007469e+002  7.2956500e-023
  8.4036141e+002  7.3447100e-023
  8.4064793e+002  7.4073100e-023
  8.4093446e+002  7.4859500e-023
  8.4122098e+002  7.4748800e-023
  8.4150740e+002  7.5562000e-023
  8.4179372e+002  7.6856600e-023
  8.4208005e+002  7.7161200e-023
  8.4236637e+002  7.7049600e-023
  8.4265249e+002  7.7605300e-023
  8.4293871e+002  7.7736800e-023
  8.4322484e+002  7.9030400e-023
  8.4351086e+002  8.0419800e-023
  8.4379688e+002  8.1466200e-023
  8.4408290e+002  8.1610100e-023
  8.4436883e+002  8.2736500e-023
  8.4465465e+002  8.4005900e-023
  8.4494047e+002  8.4972900e-023
  8.4522619e+002  8.6184300e-023
  8.4551192e+002  8.7555700e-023
  8.4579764e+002  8.8633400e-023
  8.4608326e+002  9.0054700e-023
  8.4636879e+002  9.2237800e-023
  8.4665431e+002  9.4164100e-023
  8.4693983e+002  9.5380800e-023
  8.4722525e+002  9.7903700e-023
  8.4751058e+002  9.9952500e-023
  8.4779590e+002  1.0165800e-022
  8.4808122e+002  1.0487300e-022
  8.4836645e+002  1.0759800e-022
  8.4865157e+002  1.1021400e-022
  8.4893679e+002  1.1263500e-022
  8.4922181e+002  1.1599300e-022
  8.4950684e+002  1.1883000e-022
  8.4979186e+002  1.2191200e-022
  8.5007678e+002  1.2605700e-022
  8.5036171e+002  1.2982400e-022
  8.5064653e+002  1.3358700e-022
  8.5093135e+002  1.3729700e-022
  8.5121607e+002  1.4126000e-022
  8.5150080e+002  1.4468400e-022
  8.5178542e+002  1.4749700e-022
  8.5207004e+002  1.5072200e-022
  8.5235467e+002  1.5267700e-022
  8.5263919e+002  1.5565500e-022
  8.5292361e+002  1.5705700e-022
  8.5320804e+002  1.5801000e-022
  8.5349246e+002  1.5808900e-022
  8.5377678e+002  1.5786800e-022
  8.5406110e+002  1.5736800e-022
  8.5434533e+002  1.5553300e-022
  8.5462955e+002  1.5327000e-022
  8.5491367e+002  1.5230000e-022
  8.5519780e+002  1.5214400e-022
  8.5548182e+002  1.4939300e-022
  8.5576584e+002  1.4685700e-022
  8.5604987e+002  1.4546200e-022
  8.5633379e+002  1.4302200e-022
  8.5661761e+002  1.4094600e-022
  8.5690154e+002  1.3898300e-022
  8.5718526e+002  1.3677500e-022
  8.5746908e+002  1.3451600e-022
  8.5775281e+002  1.3271500e-022
  8.5803643e+002  1.3087400e-022
  8.5832005e+002  1.2835600e-022
  8.5860358e+002  1.2659600e-022
  8.5888720e+002  1.2512700e-022
  8.5917062e+002  1.2320200e-022
  8.5945405e+002  1.2054900e-022
  8.5973747e+002  1.1811500e-022
  8.6002089e+002  1.1523300e-022
  8.6030422e+002  1.1234300e-022
  8.6058744e+002  1.0974100e-022
  8.6087066e+002  1.0619500e-022
  8.6115389e+002  1.0316400e-022
  8.6143701e+002  1.0000300e-022
  8.6172013e+002  9.7446500e-023
  8.6200316e+002  9.4241300e-023
  8.6228618e+002  9.0851900e-023
  8.6256920e+002  8.7776500e-023
  8.6285213e+002  8.5159200e-023
  8.6313505e+002  8.2049700e-023
  8.6341787e+002  7.9536100e-023
  8.6370070e+002  7.7144300e-023
  8.6398342e+002  7.5475800e-023
  8.6426624e+002  7.3179200e-023
  8.6454887e+002  7.1308400e-023
  8.6483149e+002  6.9402800e-023
  8.6511411e+002  6.8282100e-023
  8.6539674e+002  6.6000800e-023
  8.6567926e+002  6.3492300e-023
  8.6596168e+002  6.2524000e-023
  8.6624421e+002  6.1034500e-023
  8.6652663e+002  5.9337300e-023
  8.6680896e+002  5.7279500e-023
  8.6709128e+002  5.5966400e-023
  8.6737360e+002  5.5283100e-023
  8.6765583e+002  5.3833700e-023
  8.6793805e+002  5.2403500e-023
  8.6822017e+002  5.1419300e-023
  8.6850230e+002  5.0036400e-023
  8.6878442e+002  4.8836500e-023
  8.6906644e+002  4.7599000e-023
  8.6934847e+002  4.7179500e-023
  8.6963049e+002  4.6243100e-023
  8.6991242e+002  4.4925300e-023
  8.7019434e+002  4.4058800e-023
  8.7047616e+002  4.3048100e-023
  8.7075799e+002  4.2525900e-023
  8.7103981e+002  4.2115900e-023
  8.7132153e+002  4.1052600e-023
  8.7160326e+002  4.0025600e-023
  8.7188488e+002  3.9590200e-023
  8.7216651e+002  3.9629100e-023
  8.7244813e+002  3.9172900e-023
  8.7272965e+002  3.8703900e-023
  8.7301118e+002  3.8440400e-023
  8.7329270e+002  3.7044000e-023
  8.7357412e+002  3.6137400e-023
  8.7385555e+002  3.6923800e-023
  8.7413697e+002  3.6542800e-023
  8.7441830e+002  3.6550500e-023
  8.7469962e+002  3.6158100e-023
  8.7498084e+002  3.5297400e-023
  8.7526207e+002  3.5082300e-023
  8.7554329e+002  3.6153900e-023
  8.7582442e+002  3.5584800e-023
  8.7610554e+002  3.5412200e-023
  8.7638666e+002  3.5846700e-023
  8.7666769e+002  3.5965700e-023
  8.7694871e+002  3.5590500e-023
  8.7722973e+002  3.5563100e-023
  8.7751066e+002  3.4759800e-023
  8.7779158e+002  3.6175300e-023
  8.7807241e+002  3.6964900e-023
  8.7835333e+002  3.7018500e-023
  8.7863405e+002  3.7135900e-023
  8.7891488e+002  3.7636100e-023
  8.7919560e+002  3.7065700e-023
  8.7947633e+002  3.6648100e-023
  8.7975695e+002  3.6559800e-023
  8.8003767e+002  3.8072300e-023
  8.8031820e+002  3.8967800e-023
  8.8059882e+002  3.9921600e-023
  8.8087935e+002  3.9811600e-023
  8.8115987e+002  3.9818600e-023
  8.8144029e+002  3.9881400e-023
  8.8172072e+002  4.0336100e-023
  8.8200114e+002  4.1616600e-023
  8.8228157e+002  4.2179400e-023
  8.8256189e+002  4.2841400e-023
  8.8284222e+002  4.3561100e-023
  8.8312244e+002  4.3633200e-023
  8.8340266e+002  4.4184500e-023
  8.8368289e+002  4.4322900e-023
  8.8396311e+002  4.4648000e-023
  8.8424324e+002  4.5296600e-023
  8.8452336e+002  4.6751000e-023
  8.8480348e+002  4.8113000e-023
  8.8508351e+002  4.8372000e-023
  8.8536353e+002  4.8395600e-023
  8.8564356e+002  4.9346600e-023
  8.8592348e+002  5.0408000e-023
  8.8620341e+002  5.0939900e-023
  8.8648333e+002  5.0904400e-023
  8.8676315e+002  5.0595000e-023
  8.8704298e+002  5.1044500e-023
  8.8732280e+002  5.0997300e-023
  8.8760263e+002  5.1668200e-023
  8.8788235e+002  5.2072400e-023
  8.8816208e+002  5.2708500e-023
  8.8844170e+002  5.3026900e-023
  8.8872142e+002  5.3110500e-023
  8.8900105e+002  5.3839200e-023
  8.8928057e+002  5.4312000e-023
  8.8956020e+002  5.4214700e-023
  8.8983972e+002  5.3604400e-023
  8.9011925e+002  5.3196300e-023
  8.9039867e+002  5.2636100e-023
  8.9067819e+002  5.2203500e-023
  8.9095762e+002  5.1428300e-023
  8.9123694e+002  5.0495400e-023
  8.9151637e+002  4.9499100e-023
  8.9179569e+002  4.9370200e-023
  8.9207502e+002  4.9128100e-023
  8.9235424e+002  4.9645200e-023
  8.9263356e+002  5.0195900e-023
  8.9291279e+002  5.0531200e-023
  8.9319191e+002  5.0914600e-023
  8.9347114e+002  5.1682900e-023
  8.9375026e+002  5.3046100e-023
  8.9402939e+002  5.4613800e-023
  8.9430851e+002  5.6659000e-023
  8.9458754e+002  5.9052400e-023
  8.9486656e+002  6.1052000e-023
  8.9514558e+002  6.1788300e-023
  8.9542451e+002  6.2614600e-023
  8.9570353e+002  6.4456700e-023
  8.9598246e+002  6.5926700e-023
  8.9626138e+002  6.7033400e-023
  8.9654021e+002  6.7473100e-023
  8.9681903e+002  6.8486900e-023
  8.9709786e+002  6.8764200e-023
  8.9737668e+002  6.9281900e-023
  8.9765550e+002  6.9735300e-023
  8.9793423e+002  6.8707400e-023
  8.9821295e+002  6.8113000e-023
  8.9849168e+002  6.7837100e-023
  8.9877030e+002  6.7427800e-023
  8.9904893e+002  6.6743400e-023
  8.9932755e+002  6.6257600e-023
  8.9960618e+002  6.6077300e-023
  8.9988480e+002  6.4322700e-023
  9.0016333e+002  6.3809400e-023
  9.0044185e+002  6.3390200e-023
  9.0072037e+002  6.2210100e-023
  9.0099880e+002  6.1197200e-023
  9.0127722e+002  6.0211100e-023
  9.0155565e+002  5.8711600e-023
  9.0183407e+002  5.7636800e-023
  9.0211250e+002  5.5993200e-023
  9.0239082e+002  5.3996400e-023
  9.0266915e+002  5.1980200e-023
  9.0294747e+002  5.0533400e-023
  9.0322580e+002  4.9735500e-023
  9.0350402e+002  4.8918500e-023
  9.0378235e+002  4.9474200e-023
  9.0406057e+002  4.8328900e-023
  9.0433869e+002  4.6160800e-023
  9.0461692e+002  4.4324200e-023
  9.0489504e+002  4.2404600e-023
  9.0517317e+002  4.2319400e-023
  9.0545129e+002  4.2122300e-023
  9.0572942e+002  4.0505100e-023
  9.0600744e+002  3.8589700e-023
  9.0628547e+002  3.7805200e-023
  9.0656349e+002  3.6975100e-023
  9.0684152e+002  3.6083400e-023
  9.0711954e+002  3.5589600e-023
  9.0739747e+002  3.3231400e-023
  9.0767539e+002  3.1366300e-023
  9.0795332e+002  3.0888000e-023
  9.0823124e+002  3.0195100e-023
  9.0850916e+002  2.8330400e-023
  9.0878699e+002  2.7514800e-023
  9.0906481e+002  2.7078100e-023
  9.0934264e+002  2.6828300e-023
  9.0962046e+002  2.6554800e-023
  9.0989829e+002  2.5619200e-023
  9.1017601e+002  2.4480800e-023
  9.1045374e+002  2.3495200e-023
  9.1073146e+002  2.3199000e-023
  9.1100919e+002  2.3280900e-023
  9.1128691e+002  2.2319600e-023
  9.1156454e+002  2.1428100e-023
  9.1184216e+002  2.0634300e-023
  9.1211979e+002  2.0004500e-023
  9.1239741e+002  2.0036600e-023
  9.1267504e+002  2.0518900e-023
  9.1295256e+002  1.9910100e-023
  9.1323009e+002  1.8700500e-023
  9.1350771e+002  1.8444400e-023
  9.1378524e+002  1.7941900e-023
  9.1406266e+002  1.7758400e-023
  9.1434019e+002  1.7338400e-023
  9.1461761e+002  1.7254400e-023
  9.1489514e+002  1.7915400e-023
  9.1517256e+002  1.7223900e-023
  9.1544998e+002  1.5835600e-023
  9.1572731e+002  1.6055900e-023
  9.1600473e+002  1.6231400e-023
  9.1628206e+002  1.5896400e-023
  9.1655948e+002  1.5595400e-023
  9.1683681e+002  1.5419200e-023
  9.1711413e+002  1.5576200e-023
  9.1739136e+002  1.6156900e-023
  9.1766868e+002  1.5203500e-023
  9.1794591e+002  1.4643300e-023
  9.1822323e+002  1.4519700e-023
  9.1850046e+002  1.4011500e-023
  9.1877768e+002  1.4297300e-023
  9.1905481e+002  1.4441400e-023
  9.1933203e+002  1.5002800e-023
  9.1960926e+002  1.5358500e-023
  9.1988638e+002  1.4588100e-023
  9.2016351e+002  1.5105400e-023
  9.2044063e+002  1.4621800e-023
  9.2071776e+002  1.4229200e-023
  9.2099488e+002  1.3715300e-023
  9.2127201e+002  1.3578900e-023
  9.2154903e+002  1.3319600e-023
  9.2182606e+002  1.3461800e-023
  9.2210318e+002  1.3595500e-023
  9.2238021e+002  1.3433400e-023
  9.2265723e+002  1.4344200e-023
  9.2293416e+002  1.3356600e-023
  9.2321118e+002  1.3126900e-023
  9.2348821e+002  1.3551500e-023
  9.2376513e+002  1.3671100e-023
  9.2404206e+002  1.3443700e-023
  9.2431908e+002  1.3547900e-023
  9.2459601e+002  1.3289200e-023
  9.2487283e+002  1.3513800e-023
  9.2514976e+002  1.3901500e-023
  9.2542668e+002  1.4513900e-023
  9.2570351e+002  1.4304300e-023
  9.2598043e+002  1.4000300e-023
  9.2625726e+002  1.4228900e-023
  9.2653408e+002  1.4202100e-023
  9.2681091e+002  1.5155000e-023
  9.2708773e+002  1.5267100e-023
  9.2736456e+002  1.5591800e-023
  9.2764138e+002  1.5621000e-023
  9.2791821e+002  1.5100000e-023
  9.2819493e+002  1.4693900e-023
  9.2847166e+002  1.5164900e-023
  9.2874848e+002  1.5773100e-023
  9.2902521e+002  1.4929500e-023
  9.2930193e+002  1.5546700e-023
  9.2957866e+002  1.5647400e-023
  9.2985538e+002  1.5271100e-023
  9.3013211e+002  1.5500900e-023
  9.3040873e+002  1.5635000e-023
  9.3068546e+002  1.5264500e-023
  9.3096208e+002  1.4462500e-023
  9.3123881e+002  1.4643400e-023
  9.3151543e+002  1.5356800e-023
  9.3179206e+002  1.5905600e-023
  9.3206878e+002  1.5742500e-023
  9.3234541e+002  1.4510200e-023
  9.3262203e+002  1.3805200e-023
  9.3289856e+002  1.3640300e-023
  9.3317518e+002  1.4095600e-023
  9.3345181e+002  1.3876800e-023
  9.3372833e+002  1.3970900e-023
  9.3400496e+002  1.3919400e-023
  9.3428148e+002  1.3945100e-023
  9.3455811e+002  1.4236800e-023
  9.3483463e+002  1.4724900e-023
  9.3511116e+002  1.5147400e-023
  9.3538778e+002  1.5175400e-023
  9.3566431e+002  1.5768000e-023
  9.3594083e+002  1.6601000e-023
  9.3621736e+002  1.7230600e-023
  9.3649378e+002  1.8391900e-023
  9.3677031e+002  1.9348500e-023
  9.3704683e+002  1.9632700e-023
  9.3732336e+002  2.1210200e-023
  9.3759978e+002  2.2366500e-023
  9.3787631e+002  2.2658500e-023
  9.3815273e+002  2.4338200e-023
  9.3842926e+002  2.5124700e-023
  9.3870568e+002  2.6610400e-023
  9.3898211e+002  2.7483200e-023
  9.3925863e+002  2.8702100e-023
  9.3953506e+002  3.0475300e-023
  9.3981148e+002  3.1211300e-023
  9.4008791e+002  3.2389100e-023
  9.4036433e+002  3.3379700e-023
  9.4064076e+002  3.4482900e-023
  9.4091718e+002  3.5691000e-023
  9.4119361e+002  3.7240600e-023
  9.4147003e+002  3.8541900e-023
  9.4174646e+002  3.9816400e-023
  9.4202288e+002  4.1332700e-023
  9.4229921e+002  4.3148300e-023
  9.4257563e+002  4.4677400e-023
  9.4285206e+002  4.5009800e-023
  9.4312838e+002  4.4963900e-023
  9.4340481e+002  4.5786300e-023
  9.4368123e+002  4.5981200e-023
  9.4395756e+002  4.6950700e-023
  9.4423399e+002  4.7806700e-023
  9.4451031e+002  4.7767100e-023
  9.4478674e+002  4.6405900e-023
  9.4506306e+002  4.6229400e-023
  9.4533939e+002  4.6069000e-023
  9.4561581e+002  4.4677400e-023
  9.4589214e+002  4.3149600e-023
  9.4616846e+002  4.2391500e-023
  9.4644489e+002  4.1177300e-023
  9.4672121e+002  3.9577100e-023
  9.4699754e+002  3.9248200e-023
  9.4727396e+002  3.7839400e-023
  9.4755029e+002  3.6163500e-023
  9.4782661e+002  3.4224800e-023
  9.4810294e+002  3.2689000e-023
  9.4837936e+002  3.0421900e-023
  9.4865569e+002  2.8676300e-023
  9.4893201e+002  2.7495200e-023
  9.4920834e+002  2.6909400e-023
  9.4948466e+002  2.5543600e-023
  9.4976109e+002  2.3580700e-023
  9.5003741e+002  2.2538400e-023
  9.5031374e+002  2.1446500e-023
  9.5059006e+002  2.0610800e-023
  9.5086639e+002  1.9258600e-023
  9.5114271e+002  1.8560500e-023
  9.5141914e+002  1.8255200e-023
  9.5169546e+002  1.7384300e-023
  9.5197179e+002  1.8510800e-023
  9.5224811e+002  1.7937200e-023
  9.5252454e+002  1.6235000e-023
  9.5280086e+002  1.5397200e-023
  9.5307719e+002  1.5460200e-023
  9.5335351e+002  1.4199900e-023
  9.5362994e+002  1.3775600e-023
  9.5390626e+002  1.3410500e-023
  9.5418259e+002  1.2189800e-023
  9.5445901e+002  1.2623300e-023
  9.5473534e+002  1.3563700e-023
  9.5501166e+002  1.3648300e-023
  9.5528809e+002  1.2958500e-023
  9.5556441e+002  1.3289700e-023
  9.5584084e+002  1.2833600e-023
  9.5611716e+002  1.2799900e-023
  9.5639359e+002  1.2642100e-023
  9.5666991e+002  1.3765900e-023
  9.5694634e+002  1.3245000e-023
  9.5722266e+002  1.2426900e-023
  9.5749909e+002  1.2057500e-023
  9.5777551e+002  1.1618300e-023
  9.5805184e+002  1.0457000e-023
  9.5832826e+002  1.0589600e-023
  9.5860469e+002  1.0706800e-023
  9.5888111e+002  9.8481400e-024
  9.5915754e+002  9.9076700e-024
  9.5943396e+002  9.4164400e-024
  9.5971039e+002  8.9281700e-024
  9.5998681e+002  8.8865700e-024
  9.6026324e+002  9.0802500e-024
  9.6053966e+002  8.1655400e-024
  9.6081609e+002  8.0365900e-024
  9.6109251e+002  7.7282200e-024
  9.6136904e+002  6.8753600e-024
  9.6164547e+002  6.6090700e-024
  9.6192189e+002  6.9623300e-024
  9.6219842e+002  6.9456800e-024
  9.6247484e+002  7.7753000e-024
  9.6275137e+002  7.6349000e-024
  9.6302789e+002  6.5146400e-024
  9.6330432e+002  7.1047100e-024
  9.6358084e+002  7.4677600e-024
  9.6385737e+002  6.9274000e-024
  9.6413389e+002  7.1229000e-024
  9.6441042e+002  6.8133800e-024
  9.6468694e+002  6.5828200e-024
  9.6496347e+002  6.2014800e-024
  9.6523999e+002  7.2023000e-024
  9.6551652e+002  7.0372000e-024
  9.6579314e+002  6.0011700e-024
  9.6606967e+002  5.8726000e-024
  9.6634629e+002  5.5859600e-024
  9.6662282e+002  5.0719700e-024
  9.6689944e+002  5.9760900e-024
  9.6717607e+002  5.7528700e-024
  9.6745269e+002  5.2623000e-024
  9.6772932e+002  4.9342800e-024
  9.6800594e+002  5.0558000e-024
  9.6828257e+002  3.9437000e-024
  9.6855919e+002  4.0564200e-024
  9.6883582e+002  3.8889600e-024
  9.6911244e+002  3.5613500e-024
  9.6938917e+002  3.0507400e-024
  9.6966579e+002  3.0271200e-024
  9.6994252e+002  3.1681300e-024
  9.7021924e+002  2.3523900e-024
  9.7049597e+002  2.2760100e-024
  9.7077269e+002  2.4580400e-024
  9.7104942e+002  2.6669800e-024
  9.7132614e+002  2.2747100e-024
  9.7160287e+002  2.3815900e-024
  9.7187969e+002  2.3673200e-024
  9.7215642e+002  1.7666700e-024
  9.7243324e+002  1.9667000e-024
  9.7270996e+002  1.9147100e-024
  9.7298679e+002  2.0571600e-024
  9.7326361e+002  2.0622500e-024
  9.7354044e+002  1.9409500e-024
  9.7381726e+002  1.9022500e-024
  9.7409419e+002  1.7640300e-024
  9.7437101e+002  1.4719000e-024
  9.7464794e+002  9.9009700e-025
  9.7492476e+002  6.2465300e-025
  9.7520169e+002  3.7536900e-026
  9.7547861e+002  3.1499300e-025
  9.7575554e+002  4.5571300e-025
  9.7603246e+002  1.2053300e-024
  9.7630939e+002  1.6934200e-024
  9.7658641e+002  1.3059500e-024
  9.7686334e+002  9.0503200e-025
  9.7714036e+002  1.0675100e-024
  9.7741739e+002  1.1540700e-024
  9.7769441e+002  1.3731400e-024
  9.7797144e+002  1.4787300e-024
  9.7824846e+002  1.7676900e-024
  9.7852549e+002  1.6649300e-024
  9.7880261e+002  1.1440000e-024
  9.7907964e+002  1.4669500e-024
  9.7935676e+002  1.7203600e-024
  9.7963389e+002  1.6042300e-024
  9.7991101e+002  1.7863900e-024
  9.8018814e+002  1.7218500e-024
  9.8046536e+002  1.8658300e-024
  9.8074249e+002  1.9953900e-024
  9.8101971e+002  2.0485700e-024
  9.8129694e+002  1.9890000e-024
  9.8157416e+002  1.5269900e-024
  9.8185139e+002  2.0539300e-024
  9.8212861e+002  1.7131400e-024
  9.8240594e+002  2.6318700e-024
  9.8268316e+002  2.3958200e-024
  9.8296049e+002  2.4489600e-024
  9.8323781e+002  2.8008900e-024
  9.8351513e+002  2.7073200e-024
  9.8379246e+002  2.2520400e-024
  9.8406988e+002  2.8223500e-024
  9.8434721e+002  3.0051300e-024
  9.8462463e+002  3.7233900e-024
  9.8490206e+002  4.5254800e-024
  9.8517948e+002  4.6998600e-024
  9.8545701e+002  4.4953000e-024
  9.8573443e+002  4.6210600e-024
  9.8601196e+002  4.5854300e-024
  9.8628948e+002  5.9602400e-024
  9.8656701e+002  6.7187500e-024
  9.8684453e+002  7.0554200e-024
  9.8712206e+002  8.3743400e-024
  9.8739968e+002  9.2332200e-024
  9.8767731e+002  9.5688700e-024
  9.8795483e+002  1.0498300e-023
  9.8823256e+002  1.1523100e-023
  9.8851018e+002  1.1746600e-023
  9.8878780e+002  1.2563800e-023
  9.8906553e+002  1.2916600e-023
  9.8934325e+002  1.3199300e-023
  9.8962098e+002  1.4931300e-023
  9.8989870e+002  1.7504800e-023
  9.9017653e+002  2.0665200e-023
  9.9045435e+002  2.5836500e-023
  9.9073208e+002  3.3191800e-023
  9.9101000e+002  4.1882400e-023
  9.9128783e+002  4.8417900e-023
  9.9156565e+002  4.5142500e-023
  9.9184358e+002  3.5136300e-023
  9.9212150e+002  2.8138600e-023
  9.9239942e+002  2.7128200e-023
  9.9267735e+002  2.7835600e-023
  9.9295537e+002  2.6616100e-023
  9.9323340e+002  2.6705500e-023
  9.9351142e+002  2.7600400e-023
  9.9378945e+002  2.6536300e-023
  9.9406747e+002  2.5176500e-023
  9.9434560e+002  2.5954000e-023
  9.9462372e+002  2.6434500e-023
  9.9490185e+002  2.5107700e-023
  9.9517997e+002  2.1192200e-023
  9.9545820e+002  1.8503400e-023
  9.9573642e+002  1.9244200e-023
  9.9601464e+002  1.8406500e-023
  9.9629287e+002  1.4895400e-023
  9.9657109e+002  1.2231100e-023
  9.9684942e+002  1.0743700e-023
  9.9712774e+002  1.1049800e-023
  9.9740607e+002  1.2844000e-023
  9.9768439e+002  1.2056100e-023
  9.9796282e+002  8.8699100e-024
  9.9824124e+002  7.7084400e-024
  9.9851966e+002  7.4506900e-024
  9.9879809e+002  7.3726600e-024
  9.9907661e+002  8.7777500e-024
  9.9935514e+002  8.3098600e-024
  9.9963366e+002  6.2609800e-024
  9.9991219e+002  4.2584200e-024
  1.0001908e+003  4.7617800e-024
  1.0004693e+003  5.5550700e-024
  1.0007480e+003  5.5187700e-024
  1.0010267e+003  5.7750100e-024
  1.0013053e+003  6.1850900e-024
  1.0015840e+003  5.4449800e-024
  1.0018628e+003  3.6663400e-024
  1.0021416e+003  3.0163800e-024
  1.0024203e+003  3.4761100e-024
  1.0026991e+003  3.5296100e-024
  1.0029780e+003  4.2908400e-024
  1.0032569e+003  4.4233600e-024
  1.0035357e+003  3.7953900e-024
  1.0038146e+003  3.1521200e-024
  1.0040937e+003  2.9339400e-024
  1.0043726e+003  1.8237500e-024
  1.0046516e+003  2.0138200e-024
  1.0049306e+003  2.1682800e-024
  1.0052096e+003  2.1976500e-024
  1.0054888e+003  3.0806700e-024
  1.0057678e+003  3.7938600e-024
  1.0060470e+003  3.1108500e-024
  1.0063261e+003  2.8764300e-024
  1.0066054e+003  2.5217200e-024
  1.0068846e+003  1.8037100e-024
  1.0071638e+003  1.5874600e-024
  1.0074430e+003  1.3753600e-024
  1.0077224e+003  1.4462700e-024
  1.0080017e+003  2.2809300e-024
  1.0082811e+003  1.0041700e-024
  1.0085604e+003  1.0712500e-024
  1.0088399e+003  1.9536300e-024
  1.0091194e+003  1.7903300e-024
  1.0093988e+003  1.5501300e-024
  1.0096783e+003  1.2155800e-024
  1.0099579e+003  1.5756700e-024
  1.0102375e+003  1.6568500e-024
  1.0105171e+003  1.1379500e-024
  1.0107967e+003  1.3123100e-024
  1.0110764e+003  1.2504600e-024
  1.0113561e+003  4.9801600e-025
  1.0116358e+003  1.2185800e-024
  1.0119155e+003  1.3759000e-024
  1.0121954e+003  8.0347700e-025
  1.0124752e+003  9.2175600e-025
  1.0127550e+003  1.2966100e-024
  1.0130348e+003  1.1768600e-024
  1.0133148e+003  1.7597100e-024
  1.0135947e+003  1.8248700e-024
  1.0138747e+003  7.9824200e-025
  1.0145487e+003  1.1991800e-024
  1.0153459e+003 -1.6888300e-025
  1.0161430e+003 -2.4939200e-025
  1.0169399e+003 -2.2495200e-025
  1.0177367e+003  2.8536300e-025
  1.0185332e+003  2.3864000e-025
  1.0193297e+003 -8.7489700e-025
  1.0201260e+003 -2.9573000e-025
  1.0209221e+003  4.0662100e-025
  1.0217181e+003 -3.3244100e-025
  1.0225140e+003 -4.5858100e-025
  1.0233095e+003  2.2881400e-025
  1.0241050e+003 -6.4175900e-025
  1.0249004e+003  1.9482700e-025
  1.0256956e+003  6.2754300e-025
  1.0264906e+003 -3.8763600e-025
  1.0272855e+003 -3.2806700e-025
  1.0280802e+003 -1.7259700e-025
  1.0288747e+003  4.6629800e-026
  1.0296692e+003  1.2767400e-025
  1.0304634e+003 -1.5440300e-025
  1.0312575e+003  3.2388500e-025
  1.0320515e+003 -4.8154100e-025
  1.0328453e+003 -4.6525800e-025
  1.0336389e+003 -8.7043400e-025
  1.0344324e+003 -7.9497500e-026
  1.0352257e+003 -3.4133900e-026
  1.0360189e+003 -3.2850400e-025
  1.0368120e+003 -6.6706400e-025
  1.0376049e+003 -2.0541400e-025
  1.0383975e+003  6.5325700e-025
  1.0391901e+003  2.1651900e-025
  1.0399826e+003  8.7438000e-025
  1.0407748e+003  1.5839000e-024
  1.0415670e+003  8.2140900e-025
  1.0423590e+003  1.5732800e-024
  1.0431508e+003  2.1251300e-024
  1.0439424e+003  3.2186200e-024
  1.0447340e+003  4.1366800e-024
  1.0455254e+003  5.9529300e-024
  1.0463166e+003  7.2056200e-024
  1.0471078e+003  5.8837300e-024
  1.0478987e+003  4.9872700e-024
  1.0486895e+003  4.1752500e-024
  1.0494801e+003  5.2626900e-024
  1.0502706e+003  4.4540200e-024
  1.0510610e+003  3.7905700e-024
  1.0518512e+003  3.2016500e-024
  1.0526413e+003  1.5087000e-024
  1.0534313e+003  2.0732400e-024
  1.0542210e+003  2.0145600e-024
  1.0550106e+003  1.6915200e-024
  1.0558001e+003  1.0845500e-024
  1.0565895e+003  1.6845000e-024
  1.0573787e+003  1.5218600e-024
  1.0581678e+003  8.6517000e-027
  1.0589568e+003  5.9146800e-025
  1.0597455e+003  5.6592000e-025
  1.0605341e+003  4.5889000e-025
  1.0613226e+003  9.7043900e-025
  1.0621110e+003  6.1584800e-025
  1.0628993e+003  3.1125700e-025
  1.0636874e+003  7.5791300e-025
  1.0644753e+003  1.2561800e-024
  1.0652631e+003  1.0683600e-024
  1.0660507e+003  4.7759200e-025
