% C0 (TOA Count Rate, /ms) for 4STAR NIR spectrometer (512 channels) derived from (SEE ORIGINAL FILES FOR SOURCES) and recorded on 2013-02-20 15:33:39.
% Average of the 20130212 and 20130214 Langley C0, refined_Langley_on_G1_firstL_flight_screened_2x_withOMIozone and refined_Langley_on_G1_secondL_flight_screened_2x_withOMIozone.
Pix Wavelength C0 C0err
511 949.79 4.51752706e+000 -1.00000000e+000 
510 949.79 4.64034449e+000 -1.00000000e+000 
509 951.68 4.96758029e+000 -1.00000000e+000 
508 953.57 4.98181044e+000 -1.00000000e+000 
507 955.46 5.36332492e+000 -1.00000000e+000 
506 957.34 5.41044092e+000 -1.00000000e+000 
505 959.22 5.78294291e+000 -1.00000000e+000 
504 961.10 5.81895056e+000 -1.00000000e+000 
503 962.98 6.14108746e+000 -1.00000000e+000 
502 964.85 6.09681413e+000 -1.00000000e+000 
501 966.72 6.49575422e+000 -1.00000000e+000 
500 968.59 6.46844897e+000 -1.00000000e+000 
499 970.45 6.79762699e+000 -1.00000000e+000 
498 972.32 6.75070900e+000 -1.00000000e+000 
497 974.18 7.03063757e+000 -1.00000000e+000 
496 976.04 6.95182970e+000 -1.00000000e+000 
495 977.89 7.19234584e+000 -1.00000000e+000 
494 979.74 7.07898828e+000 -1.00000000e+000 
493 981.59 7.28719095e+000 -1.00000000e+000 
492 983.44 7.16576286e+000 -1.00000000e+000 
491 985.29 7.37261802e+000 -1.00000000e+000 
490 987.13 7.18359714e+000 -1.00000000e+000 
489 988.97 7.38639368e+000 -1.00000000e+000 
488 990.81 7.20787257e+000 -1.00000000e+000 
487 992.65 7.37144841e+000 -1.00000000e+000 
486 994.48 7.20992203e+000 -1.00000000e+000 
485 996.31 7.33565797e+000 -1.00000000e+000 
484 998.14 7.13731480e+000 -1.00000000e+000 
483 999.97 7.27606311e+000 -1.00000000e+000 
482 1001.79 7.03568651e+000 -1.00000000e+000 
481 1003.62 7.09982555e+000 -1.00000000e+000 
480 1005.44 6.92793342e+000 -1.00000000e+000 
479 1007.25 7.12777948e+000 -1.00000000e+000 
478 1009.07 6.94313981e+000 -1.00000000e+000 
477 1010.88 7.10661025e+000 -1.00000000e+000 
476 1012.69 6.87918609e+000 -1.00000000e+000 
475 1014.50 6.99927523e+000 -1.00000000e+000 
474 1016.31 6.82178414e+000 -1.00000000e+000 
473 1018.11 6.95675920e+000 -1.00000000e+000 
472 1019.91 6.75014108e+000 -1.00000000e+000 
471 1021.71 6.88965267e+000 -1.00000000e+000 
470 1023.51 6.69941801e+000 -1.00000000e+000 
469 1025.30 6.83387640e+000 -1.00000000e+000 
468 1027.09 6.74853541e+000 -1.00000000e+000 
467 1028.88 6.88843638e+000 -1.00000000e+000 
466 1030.67 6.74506583e+000 -1.00000000e+000 
465 1032.46 6.88962605e+000 -1.00000000e+000 
464 1034.24 6.77243133e+000 -1.00000000e+000 
463 1036.02 6.93184702e+000 -1.00000000e+000 
462 1037.80 6.82161031e+000 -1.00000000e+000 
461 1039.58 7.02164081e+000 -1.00000000e+000 
460 1041.35 6.89905320e+000 -1.00000000e+000 
459 1043.12 7.03128148e+000 -1.00000000e+000 
458 1044.89 6.97217525e+000 -1.00000000e+000 
457 1046.66 7.17773971e+000 -1.00000000e+000 
456 1048.43 7.13708951e+000 -1.00000000e+000 
455 1050.19 7.32707835e+000 -1.00000000e+000 
454 1051.95 7.18022312e+000 -1.00000000e+000 
453 1053.71 7.40976528e+000 -1.00000000e+000 
452 1055.47 7.25901628e+000 -1.00000000e+000 
451 1057.23 7.39547165e+000 -1.00000000e+000 
450 1058.98 7.27078298e+000 -1.00000000e+000 
449 1060.73 7.42570193e+000 -1.00000000e+000 
448 1062.48 7.27721102e+000 -1.00000000e+000 
447 1064.23 7.40500273e+000 -1.00000000e+000 
446 1065.97 7.14677508e+000 -1.00000000e+000 
445 1067.71 7.17035986e+000 -1.00000000e+000 
444 1069.46 7.00042444e+000 -1.00000000e+000 
443 1071.19 7.09156912e+000 -1.00000000e+000 
442 1072.93 6.94358485e+000 -1.00000000e+000 
441 1074.67 7.01732100e+000 -1.00000000e+000 
440 1076.40 6.85905419e+000 -1.00000000e+000 
439 1078.13 6.92066807e+000 -1.00000000e+000 
438 1079.86 6.72952979e+000 -1.00000000e+000 
437 1081.58 6.80505373e+000 -1.00000000e+000 
436 1083.31 6.69856357e+000 -1.00000000e+000 
435 1085.03 6.86608078e+000 -1.00000000e+000 
434 1086.75 6.81870189e+000 -1.00000000e+000 
433 1088.47 6.97320729e+000 -1.00000000e+000 
432 1090.19 6.88923405e+000 -1.00000000e+000 
431 1091.90 7.01257625e+000 -1.00000000e+000 
430 1093.61 6.90482382e+000 -1.00000000e+000 
429 1095.33 7.07217131e+000 -1.00000000e+000 
428 1097.03 7.11254125e+000 -1.00000000e+000 
427 1098.74 7.34559298e+000 -1.00000000e+000 
426 1100.45 7.35952682e+000 -1.00000000e+000 
425 1102.15 7.60458378e+000 -1.00000000e+000 
424 1103.85 7.60636712e+000 -1.00000000e+000 
423 1105.55 7.82305925e+000 -1.00000000e+000 
422 1107.25 7.80444626e+000 -1.00000000e+000 
421 1108.94 8.00936688e+000 -1.00000000e+000 
420 1110.64 7.90003300e+000 -1.00000000e+000 
419 1112.33 8.07510438e+000 -1.00000000e+000 
418 1114.02 7.92722398e+000 -1.00000000e+000 
417 1115.70 8.00858275e+000 -1.00000000e+000 
416 1117.39 7.87235924e+000 -1.00000000e+000 
415 1119.07 7.93224629e+000 -1.00000000e+000 
414 1120.76 7.81381697e+000 -1.00000000e+000 
413 1122.44 7.93493878e+000 -1.00000000e+000 
412 1124.12 7.83242312e+000 -1.00000000e+000 
411 1125.79 7.97788146e+000 -1.00000000e+000 
410 1127.47 7.96276135e+000 -1.00000000e+000 
409 1129.14 8.12680066e+000 -1.00000000e+000 
408 1130.81 7.98146806e+000 -1.00000000e+000 
407 1132.48 8.00268688e+000 -1.00000000e+000 
406 1134.15 7.89300482e+000 -1.00000000e+000 
405 1135.81 7.99297418e+000 -1.00000000e+000 
404 1137.48 8.04260512e+000 -1.00000000e+000 
403 1139.14 8.17396629e+000 -1.00000000e+000 
402 1140.80 8.01398014e+000 -1.00000000e+000 
401 1142.46 8.08795985e+000 -1.00000000e+000 
400 1144.12 7.94356113e+000 -1.00000000e+000 
399 1145.77 8.02292268e+000 -1.00000000e+000 
398 1147.43 7.96123295e+000 -1.00000000e+000 
397 1149.08 8.03695739e+000 -1.00000000e+000 
396 1150.73 7.96577001e+000 -1.00000000e+000 
395 1152.38 8.09893484e+000 -1.00000000e+000 
394 1154.02 7.98418154e+000 -1.00000000e+000 
393 1155.67 8.11862202e+000 -1.00000000e+000 
392 1157.31 7.94069940e+000 -1.00000000e+000 
391 1158.95 7.97068149e+000 -1.00000000e+000 
390 1160.59 7.83538955e+000 -1.00000000e+000 
389 1162.23 7.90943202e+000 -1.00000000e+000 
388 1163.87 7.80035618e+000 -1.00000000e+000 
387 1165.50 7.86683913e+000 -1.00000000e+000 
386 1167.13 7.74935925e+000 -1.00000000e+000 
385 1168.76 7.80342928e+000 -1.00000000e+000 
384 1170.39 7.69328550e+000 -1.00000000e+000 
383 1172.02 7.67637250e+000 -1.00000000e+000 
382 1173.65 7.51160323e+000 -1.00000000e+000 
381 1175.27 7.50827229e+000 -1.00000000e+000 
380 1176.90 7.41103098e+000 -1.00000000e+000 
379 1178.52 7.41378788e+000 -1.00000000e+000 
378 1180.14 7.22328268e+000 -1.00000000e+000 
377 1181.75 7.21926095e+000 -1.00000000e+000 
376 1183.37 7.03839266e+000 -1.00000000e+000 
375 1184.99 7.06571992e+000 -1.00000000e+000 
374 1186.60 6.93922015e+000 -1.00000000e+000 
373 1188.21 6.89888883e+000 -1.00000000e+000 
372 1189.82 6.80268303e+000 -1.00000000e+000 
371 1191.43 6.95008040e+000 -1.00000000e+000 
370 1193.04 6.82207922e+000 -1.00000000e+000 
369 1194.64 6.81148540e+000 -1.00000000e+000 
368 1196.24 6.66262511e+000 -1.00000000e+000 
367 1197.85 6.71015878e+000 -1.00000000e+000 
366 1199.45 6.62087003e+000 -1.00000000e+000 
365 1201.05 6.70710917e+000 -1.00000000e+000 
364 1202.64 6.64295118e+000 -1.00000000e+000 
363 1204.24 6.67084539e+000 -1.00000000e+000 
362 1205.83 6.58749230e+000 -1.00000000e+000 
361 1207.43 6.60103289e+000 -1.00000000e+000 
360 1209.02 6.55328393e+000 -1.00000000e+000 
359 1210.61 6.63127951e+000 -1.00000000e+000 
358 1212.19 6.61051690e+000 -1.00000000e+000 
357 1213.78 6.74487855e+000 -1.00000000e+000 
356 1215.37 6.66922552e+000 -1.00000000e+000 
355 1216.95 6.70551490e+000 -1.00000000e+000 
354 1218.53 6.64204849e+000 -1.00000000e+000 
353 1220.11 6.72661428e+000 -1.00000000e+000 
352 1221.69 6.71355886e+000 -1.00000000e+000 
351 1223.27 6.74495528e+000 -1.00000000e+000 
350 1224.84 6.70570256e+000 -1.00000000e+000 
349 1226.42 6.76137431e+000 -1.00000000e+000 
348 1227.99 6.77196859e+000 -1.00000000e+000 
347 1229.56 6.90317221e+000 -1.00000000e+000 
346 1231.13 6.81304495e+000 -1.00000000e+000 
345 1232.70 6.85889353e+000 -1.00000000e+000 
344 1234.27 6.83585477e+000 -1.00000000e+000 
343 1235.84 6.87331682e+000 -1.00000000e+000 
342 1237.40 6.82829389e+000 -1.00000000e+000 
341 1238.96 6.82942220e+000 -1.00000000e+000 
340 1240.52 6.71307026e+000 -1.00000000e+000 
339 1242.08 6.82245454e+000 -1.00000000e+000 
338 1243.64 6.79708897e+000 -1.00000000e+000 
337 1245.20 6.82884867e+000 -1.00000000e+000 
336 1246.75 6.81224455e+000 -1.00000000e+000 
335 1248.31 6.89134311e+000 -1.00000000e+000 
334 1249.86 6.82614878e+000 -1.00000000e+000 
333 1251.41 6.85741715e+000 -1.00000000e+000 
332 1252.96 6.78349643e+000 -1.00000000e+000 
331 1254.51 6.80694949e+000 -1.00000000e+000 
330 1256.06 6.73968603e+000 -1.00000000e+000 
329 1257.61 6.71987991e+000 -1.00000000e+000 
328 1259.15 6.62694158e+000 -1.00000000e+000 
327 1260.69 6.57592909e+000 -1.00000000e+000 
326 1262.23 6.48716424e+000 -1.00000000e+000 
325 1263.77 6.46469974e+000 -1.00000000e+000 
324 1265.31 6.32104119e+000 -1.00000000e+000 
323 1266.85 6.32944927e+000 -1.00000000e+000 
322 1268.39 6.36279188e+000 -1.00000000e+000 
321 1269.92 6.45642956e+000 -1.00000000e+000 
320 1271.46 6.57023564e+000 -1.00000000e+000 
319 1272.99 6.60299620e+000 -1.00000000e+000 
318 1274.52 6.59665983e+000 -1.00000000e+000 
317 1276.05 6.64828457e+000 -1.00000000e+000 
316 1277.58 6.53887535e+000 -1.00000000e+000 
315 1279.10 6.43440656e+000 -1.00000000e+000 
314 1280.63 6.39232255e+000 -1.00000000e+000 
313 1282.15 6.36997965e+000 -1.00000000e+000 
312 1283.68 6.44699710e+000 -1.00000000e+000 
311 1285.20 6.60847010e+000 -1.00000000e+000 
310 1286.72 6.55938900e+000 -1.00000000e+000 
309 1288.24 6.60067590e+000 -1.00000000e+000 
308 1289.75 6.52101616e+000 -1.00000000e+000 
307 1291.27 6.52392853e+000 -1.00000000e+000 
306 1292.78 6.52286043e+000 -1.00000000e+000 
305 1294.30 6.52264635e+000 -1.00000000e+000 
304 1295.81 6.44231176e+000 -1.00000000e+000 
303 1297.32 6.44577143e+000 -1.00000000e+000 
302 1298.83 6.39536291e+000 -1.00000000e+000 
301 1300.34 6.35990780e+000 -1.00000000e+000 
300 1301.85 6.30948135e+000 -1.00000000e+000 
299 1303.35 6.28099919e+000 -1.00000000e+000 
298 1304.86 6.24017953e+000 -1.00000000e+000 
297 1306.36 6.25190344e+000 -1.00000000e+000 
296 1307.86 6.21473087e+000 -1.00000000e+000 
295 1309.36 6.16027985e+000 -1.00000000e+000 
294 1310.86 6.13258771e+000 -1.00000000e+000 
293 1312.36 6.06935648e+000 -1.00000000e+000 
292 1313.86 6.02127179e+000 -1.00000000e+000 
291 1315.36 6.01025463e+000 -1.00000000e+000 
290 1316.85 5.98113591e+000 -1.00000000e+000 
289 1318.34 5.98612526e+000 -1.00000000e+000 
288 1319.84 5.98387114e+000 -1.00000000e+000 
287 1321.33 6.02531768e+000 -1.00000000e+000 
286 1322.82 5.96487061e+000 -1.00000000e+000 
285 1324.30 5.95245035e+000 -1.00000000e+000 
284 1325.79 5.85815494e+000 -1.00000000e+000 
283 1327.28 5.81898673e+000 -1.00000000e+000 
282 1328.76 5.75831649e+000 -1.00000000e+000 
281 1330.25 5.75138241e+000 -1.00000000e+000 
280 1331.73 5.70678683e+000 -1.00000000e+000 
279 1333.21 5.70844538e+000 -1.00000000e+000 
278 1334.69 5.66248529e+000 -1.00000000e+000 
277 1336.17 5.61606468e+000 -1.00000000e+000 
276 1337.65 5.59965558e+000 -1.00000000e+000 
275 1339.12 5.53467270e+000 -1.00000000e+000 
274 1340.60 5.50502199e+000 -1.00000000e+000 
273 1342.07 5.49467749e+000 -1.00000000e+000 
272 1343.55 5.41712561e+000 -1.00000000e+000 
271 1345.02 5.27687781e+000 -1.00000000e+000 
270 1346.49 5.16808858e+000 -1.00000000e+000 
269 1347.96 5.08966136e+000 -1.00000000e+000 
268 1349.43 4.93268517e+000 -1.00000000e+000 
267 1350.89 4.78790613e+000 -1.00000000e+000 
266 1352.36 4.56153961e+000 -1.00000000e+000 
265 1353.82 4.38138253e+000 -1.00000000e+000 
264 1355.29 4.23827081e+000 -1.00000000e+000 
263 1356.75 4.14521347e+000 -1.00000000e+000 
262 1358.21 3.92495230e+000 -1.00000000e+000 
261 1359.67 3.75050682e+000 -1.00000000e+000 
260 1361.13 3.61879378e+000 -1.00000000e+000 
259 1362.59 3.52723898e+000 -1.00000000e+000 
258 1364.04 3.54239898e+000 -1.00000000e+000 
257 1365.50 3.53045488e+000 -1.00000000e+000 
256 1366.95 3.52104031e+000 -1.00000000e+000 
255 1368.41 3.48711730e+000 -1.00000000e+000 
254 1369.86 3.46381325e+000 -1.00000000e+000 
253 1371.31 3.50836728e+000 -1.00000000e+000 
252 1372.76 3.45080873e+000 -1.00000000e+000 
251 1374.21 3.41232414e+000 -1.00000000e+000 
250 1375.65 3.25842273e+000 -1.00000000e+000 
249 1377.10 3.01522382e+000 -1.00000000e+000 
248 1378.55 2.76481642e+000 -1.00000000e+000 
247 1379.99 2.51945807e+000 -1.00000000e+000 
246 1381.43 2.44760816e+000 -1.00000000e+000 
245 1382.87 2.52424677e+000 -1.00000000e+000 
244 1384.32 2.64649932e+000 -1.00000000e+000 
243 1385.75 2.79128628e+000 -1.00000000e+000 
242 1387.19 2.92995237e+000 -1.00000000e+000 
241 1388.63 2.93841409e+000 -1.00000000e+000 
240 1390.07 2.96709865e+000 -1.00000000e+000 
239 1391.50 2.97625225e+000 -1.00000000e+000 
238 1392.94 2.83636087e+000 -1.00000000e+000 
237 1394.37 2.90700487e+000 -1.00000000e+000 
236 1395.80 3.02144902e+000 -1.00000000e+000 
235 1397.23 2.97222046e+000 -1.00000000e+000 
234 1398.66 3.06719783e+000 -1.00000000e+000 
233 1400.09 3.17628640e+000 -1.00000000e+000 
232 1401.52 3.14467316e+000 -1.00000000e+000 
231 1402.94 3.25302231e+000 -1.00000000e+000 
230 1404.37 3.30891483e+000 -1.00000000e+000 
229 1405.79 3.26360053e+000 -1.00000000e+000 
228 1407.22 3.32285715e+000 -1.00000000e+000 
227 1408.64 3.41634692e+000 -1.00000000e+000 
226 1410.06 3.50048415e+000 -1.00000000e+000 
225 1411.48 3.50589784e+000 -1.00000000e+000 
224 1412.90 3.56088620e+000 -1.00000000e+000 
223 1414.32 3.56748575e+000 -1.00000000e+000 
222 1415.73 3.57187529e+000 -1.00000000e+000 
221 1417.15 3.59913243e+000 -1.00000000e+000 
220 1418.56 3.65418425e+000 -1.00000000e+000 
219 1419.98 3.62645805e+000 -1.00000000e+000 
218 1421.39 3.66387854e+000 -1.00000000e+000 
217 1422.80 3.68917673e+000 -1.00000000e+000 
216 1424.21 3.70842173e+000 -1.00000000e+000 
215 1425.62 3.70747810e+000 -1.00000000e+000 
214 1427.03 3.70460391e+000 -1.00000000e+000 
213 1428.44 3.54344022e+000 -1.00000000e+000 
212 1429.84 3.41516844e+000 -1.00000000e+000 
211 1431.25 3.33290502e+000 -1.00000000e+000 
210 1432.65 3.29977505e+000 -1.00000000e+000 
209 1434.06 3.35379716e+000 -1.00000000e+000 
208 1435.46 3.44801104e+000 -1.00000000e+000 
207 1436.86 3.45075967e+000 -1.00000000e+000 
206 1438.26 3.48014398e+000 -1.00000000e+000 
205 1439.66 3.46666290e+000 -1.00000000e+000 
204 1441.05 3.53710027e+000 -1.00000000e+000 
203 1442.45 3.51930043e+000 -1.00000000e+000 
202 1443.85 3.57440140e+000 -1.00000000e+000 
201 1445.24 3.60704644e+000 -1.00000000e+000 
200 1446.64 3.64951702e+000 -1.00000000e+000 
199 1448.03 3.64764540e+000 -1.00000000e+000 
198 1449.42 3.67860245e+000 -1.00000000e+000 
197 1450.81 3.66049019e+000 -1.00000000e+000 
196 1452.20 3.65849279e+000 -1.00000000e+000 
195 1453.59 3.68884660e+000 -1.00000000e+000 
194 1454.97 3.73701068e+000 -1.00000000e+000 
193 1456.36 3.73080338e+000 -1.00000000e+000 
192 1457.75 3.77300913e+000 -1.00000000e+000 
191 1459.13 3.76059880e+000 -1.00000000e+000 
190 1460.51 3.76082488e+000 -1.00000000e+000 
189 1461.90 3.68553439e+000 -1.00000000e+000 
188 1463.28 3.69664557e+000 -1.00000000e+000 
187 1464.66 3.63435534e+000 -1.00000000e+000 
186 1466.04 3.64908161e+000 -1.00000000e+000 
185 1467.41 3.61366548e+000 -1.00000000e+000 
184 1468.79 3.61254060e+000 -1.00000000e+000 
183 1470.17 3.58044403e+000 -1.00000000e+000 
182 1471.54 3.59587655e+000 -1.00000000e+000 
181 1472.92 3.59169637e+000 -1.00000000e+000 
180 1474.29 3.60604554e+000 -1.00000000e+000 
179 1475.66 3.56499262e+000 -1.00000000e+000 
178 1477.03 3.54455213e+000 -1.00000000e+000 
177 1478.40 3.52866262e+000 -1.00000000e+000 
176 1479.77 3.55703843e+000 -1.00000000e+000 
175 1481.14 3.54569935e+000 -1.00000000e+000 
174 1482.51 3.60518384e+000 -1.00000000e+000 
173 1483.87 3.55359606e+000 -1.00000000e+000 
172 1485.24 3.51058356e+000 -1.00000000e+000 
171 1486.60 3.45269725e+000 -1.00000000e+000 
170 1487.96 3.48758552e+000 -1.00000000e+000 
169 1489.32 3.44490816e+000 -1.00000000e+000 
168 1490.69 3.52403165e+000 -1.00000000e+000 
167 1492.04 3.50773319e+000 -1.00000000e+000 
166 1493.40 3.53944651e+000 -1.00000000e+000 
165 1494.76 3.49494350e+000 -1.00000000e+000 
164 1496.12 3.50603463e+000 -1.00000000e+000 
163 1497.47 3.45543615e+000 -1.00000000e+000 
162 1498.83 3.48572607e+000 -1.00000000e+000 
161 1500.18 3.34926350e+000 -1.00000000e+000 
160 1501.53 3.30681957e+000 -1.00000000e+000 
159 1502.89 3.21521385e+000 -1.00000000e+000 
158 1504.24 3.22523757e+000 -1.00000000e+000 
157 1505.59 3.26276559e+000 -1.00000000e+000 
156 1506.93 3.35488119e+000 -1.00000000e+000 
155 1508.28 3.36900380e+000 -1.00000000e+000 
154 1509.63 3.40390387e+000 -1.00000000e+000 
153 1510.97 3.36524006e+000 -1.00000000e+000 
152 1512.32 3.40204684e+000 -1.00000000e+000 
151 1513.66 3.34158987e+000 -1.00000000e+000 
150 1515.00 3.38155665e+000 -1.00000000e+000 
149 1516.34 3.34561856e+000 -1.00000000e+000 
148 1517.69 3.34626706e+000 -1.00000000e+000 
147 1519.02 3.29679428e+000 -1.00000000e+000 
146 1520.36 3.32057254e+000 -1.00000000e+000 
145 1521.70 3.28021708e+000 -1.00000000e+000 
144 1523.04 3.31257259e+000 -1.00000000e+000 
143 1524.37 3.27003985e+000 -1.00000000e+000 
142 1525.71 3.30157968e+000 -1.00000000e+000 
141 1527.04 3.24029520e+000 -1.00000000e+000 
140 1528.37 3.24812002e+000 -1.00000000e+000 
139 1529.70 3.18635427e+000 -1.00000000e+000 
138 1531.03 3.22357220e+000 -1.00000000e+000 
137 1532.36 3.16941257e+000 -1.00000000e+000 
136 1533.69 3.19830545e+000 -1.00000000e+000 
135 1535.02 3.14341771e+000 -1.00000000e+000 
134 1536.34 3.15896458e+000 -1.00000000e+000 
133 1537.67 3.10657790e+000 -1.00000000e+000 
132 1538.99 3.13971743e+000 -1.00000000e+000 
131 1540.31 3.10388151e+000 -1.00000000e+000 
130 1541.64 3.13736172e+000 -1.00000000e+000 
129 1542.96 3.11675778e+000 -1.00000000e+000 
128 1544.28 3.15024912e+000 -1.00000000e+000 
127 1545.60 3.08095331e+000 -1.00000000e+000 
126 1546.91 3.11664952e+000 -1.00000000e+000 
125 1548.23 3.04622068e+000 -1.00000000e+000 
124 1549.55 3.07536371e+000 -1.00000000e+000 
123 1550.86 3.00338524e+000 -1.00000000e+000 
122 1552.18 3.02056501e+000 -1.00000000e+000 
121 1553.49 2.96731360e+000 -1.00000000e+000 
120 1554.80 2.97829242e+000 -1.00000000e+000 
119 1556.11 2.91422871e+000 -1.00000000e+000 
118 1557.42 2.94485064e+000 -1.00000000e+000 
117 1558.73 2.89893444e+000 -1.00000000e+000 
116 1560.04 2.92814450e+000 -1.00000000e+000 
115 1561.34 2.86128327e+000 -1.00000000e+000 
114 1562.65 2.89214891e+000 -1.00000000e+000 
113 1563.95 2.83940959e+000 -1.00000000e+000 
112 1565.26 2.87023499e+000 -1.00000000e+000 
111 1566.56 2.77700676e+000 -1.00000000e+000 
110 1567.86 2.79809914e+000 -1.00000000e+000 
109 1569.16 2.71958472e+000 -1.00000000e+000 
108 1570.46 2.70709533e+000 -1.00000000e+000 
107 1571.76 2.62415233e+000 -1.00000000e+000 
106 1573.05 2.60329700e+000 -1.00000000e+000 
105 1574.35 2.53842849e+000 -1.00000000e+000 
104 1575.64 2.56439868e+000 -1.00000000e+000 
103 1576.94 2.54975066e+000 -1.00000000e+000 
102 1578.23 2.60173393e+000 -1.00000000e+000 
101 1579.52 2.59163092e+000 -1.00000000e+000 
100 1580.81 2.63698463e+000 -1.00000000e+000 
99 1582.10 2.58659200e+000 -1.00000000e+000 
98 1583.39 2.63611396e+000 -1.00000000e+000 
97 1584.68 2.58453058e+000 -1.00000000e+000 
96 1585.97 2.58738416e+000 -1.00000000e+000 
95 1587.25 2.50851618e+000 -1.00000000e+000 
94 1588.54 2.51562332e+000 -1.00000000e+000 
93 1589.82 2.47540350e+000 -1.00000000e+000 
92 1591.10 2.55264949e+000 -1.00000000e+000 
91 1592.38 2.51069711e+000 -1.00000000e+000 
90 1593.66 2.56453438e+000 -1.00000000e+000 
89 1594.94 2.49968160e+000 -1.00000000e+000 
88 1596.22 2.52246784e+000 -1.00000000e+000 
87 1597.50 2.44524773e+000 -1.00000000e+000 
86 1598.77 2.46944047e+000 -1.00000000e+000 
85 1600.05 2.39229976e+000 -1.00000000e+000 
84 1601.32 2.41806287e+000 -1.00000000e+000 
83 1602.59 2.34727045e+000 -1.00000000e+000 
82 1603.86 2.39772990e+000 -1.00000000e+000 
81 1605.13 2.31260612e+000 -1.00000000e+000 
80 1606.40 2.35658391e+000 -1.00000000e+000 
79 1607.67 2.27197221e+000 -1.00000000e+000 
78 1608.94 2.29398657e+000 -1.00000000e+000 
77 1610.20 2.23712717e+000 -1.00000000e+000 
76 1611.47 2.27571387e+000 -1.00000000e+000 
75 1612.73 2.22066148e+000 -1.00000000e+000 
74 1614.00 2.26133157e+000 -1.00000000e+000 
73 1615.26 2.19708644e+000 -1.00000000e+000 
72 1616.52 2.22592222e+000 -1.00000000e+000 
71 1617.78 2.14545430e+000 -1.00000000e+000 
70 1619.03 2.18108949e+000 -1.00000000e+000 
69 1620.29 2.13351590e+000 -1.00000000e+000 
68 1621.55 2.18662354e+000 -1.00000000e+000 
67 1622.80 2.13542288e+000 -1.00000000e+000 
66 1624.06 2.19438112e+000 -1.00000000e+000 
65 1625.31 2.12327676e+000 -1.00000000e+000 
64 1626.56 2.17206790e+000 -1.00000000e+000 
63 1627.81 2.09616831e+000 -1.00000000e+000 
62 1629.06 2.10789745e+000 -1.00000000e+000 
61 1630.31 2.04088344e+000 -1.00000000e+000 
60 1631.56 2.05835109e+000 -1.00000000e+000 
59 1632.80 1.97579087e+000 -1.00000000e+000 
58 1634.05 1.99433203e+000 -1.00000000e+000 
57 1635.29 1.89745741e+000 -1.00000000e+000 
56 1636.53 1.90240802e+000 -1.00000000e+000 
55 1637.77 1.81468944e+000 -1.00000000e+000 
54 1639.01 1.82414385e+000 -1.00000000e+000 
53 1640.25 1.76521132e+000 -1.00000000e+000 
52 1641.49 1.76980558e+000 -1.00000000e+000 
51 1642.73 1.70044063e+000 -1.00000000e+000 
50 1643.96 1.73707519e+000 -1.00000000e+000 
49 1645.20 1.66326807e+000 -1.00000000e+000 
48 1646.43 1.69043707e+000 -1.00000000e+000 
47 1647.66 1.61987272e+000 -1.00000000e+000 
46 1648.89 1.59878196e+000 -1.00000000e+000 
45 1650.12 1.52122640e+000 -1.00000000e+000 
44 1651.35 1.51011340e+000 -1.00000000e+000 
43 1652.58 1.40134274e+000 -1.00000000e+000 
42 1653.80 1.38935401e+000 -1.00000000e+000 
41 1655.03 1.28744040e+000 -1.00000000e+000 
40 1656.25 1.25931726e+000 -1.00000000e+000 
39 1657.47 1.14582792e+000 -1.00000000e+000 
38 1658.70 1.10429512e+000 -1.00000000e+000 
37 1659.92 1.00369747e+000 -1.00000000e+000 
36 1661.13 9.54810307e-001 -1.00000000e+000 
35 1662.35 8.49141321e-001 -1.00000000e+000 
34 1663.57 7.99022805e-001 -1.00000000e+000 
33 1664.78 7.08772778e-001 -1.00000000e+000 
32 1666.00 6.67467560e-001 -1.00000000e+000 
31 1667.21 5.95633229e-001 -1.00000000e+000 
30 1668.42 5.65486133e-001 -1.00000000e+000 
29 1669.63 4.94803075e-001 -1.00000000e+000 
28 1670.84 4.62735990e-001 -1.00000000e+000 
27 1672.05 4.08303288e-001 -1.00000000e+000 
26 1673.26 3.98108719e-001 -1.00000000e+000 
25 1674.46 3.44877227e-001 -1.00000000e+000 
24 1675.67 3.29633744e-001 -1.00000000e+000 
23 1676.87 2.88095736e-001 -1.00000000e+000 
22 1678.07 2.77625968e-001 -1.00000000e+000 
21 1679.27 2.45047580e-001 -1.00000000e+000 
20 1680.47 2.33130523e-001 -1.00000000e+000 
19 1681.67 2.01097611e-001 -1.00000000e+000 
18 1682.87 1.92706343e-001 -1.00000000e+000 
17 1684.06 1.76632564e-001 -1.00000000e+000 
16 1685.26 1.71726262e-001 -1.00000000e+000 
15 1686.45 1.46066657e-001 -1.00000000e+000 
14 1687.64 1.49818627e-001 -1.00000000e+000 
13 1688.83 1.28577121e-001 -1.00000000e+000 
12 1690.02 1.24155048e-001 -1.00000000e+000 
11 1691.21 1.07475249e-001 -1.00000000e+000 
10 1692.39 1.03865644e-001 -1.00000000e+000 
9 1693.58 9.58025027e-002 -1.00000000e+000 
8 1694.76 8.95699818e-002 -1.00000000e+000 
7 1695.95 7.48598138e-002 -1.00000000e+000 
6 1697.13 7.77791168e-002 -1.00000000e+000 
5 1698.31 6.51937965e-002 -1.00000000e+000 
4 1699.49 7.60697956e-002 -1.00000000e+000 
3 1700.66 5.60376499e-002 -1.00000000e+000 
2 1701.84 6.19285703e-002 -1.00000000e+000 
1 1703.01 4.59662998e-002 -1.00000000e+000 
0 1703.01 4.76080314e-002 -1.00000000e+000 
